Data from 5 min_Absorbance_12-32-29-956.txt Node
Date: Thu Feb 02 12:32:29 EST 2023
User: UV-vis
Spectrometer: FLMS04918
Trigger mode: 0
Integration Time (sec): 1.850000E-3
Scans to average: 10
Electric dark correction enabled: true
Nonlinearity correction enabled: false
Boxcar width: 10
XAxis mode: Wavelengths
Number of Pixels in Spectrum: 2048
>>>>>Begin Spectral Data<<<<<
179.23	-0
179.611	-1.2185
179.992	-1.7747
180.373	-0
180.754	-0
181.134	-0
181.515	-0
181.896	-0
182.276	-0
182.657	-0
183.038	-0
183.418	-0
183.799	-0
184.179	-0.16496
184.56	0.20848
184.94	0.27752
185.32	0.28982
185.701	0.26844
186.081	0.28292
186.461	0.30438
186.842	0.31314
187.222	0.32055
187.602	0.32052
187.982	0.3071
188.362	0.31706
188.742	0.31224
189.122	0.30746
189.502	0.3019
189.882	0.30252
190.262	0.29731
190.642	0.30733
191.022	0.31324
191.402	0.3151
191.781	0.31773
192.161	0.31977
192.541	0.3199
192.92	0.32312
193.3	0.32402
193.68	0.32754
194.059	0.32528
194.439	0.32716
194.818	0.32589
195.198	0.32485
195.577	0.33056
195.957	0.33712
196.336	0.33686
196.715	0.33501
197.094	0.33513
197.474	0.34067
197.853	0.34222
198.232	0.34805
198.611	0.35041
198.99	0.34987
199.369	0.35277
199.748	0.35399
200.127	0.35232
200.506	0.35501
200.885	0.35379
201.264	0.35926
201.643	0.35975
202.022	0.35705
202.401	0.35886
202.779	0.36144
203.158	0.36051
203.537	0.3584
203.915	0.35656
204.294	0.35116
204.673	0.3567
205.051	0.36051
205.43	0.36013
205.808	0.35809
206.187	0.35707
206.565	0.35577
206.943	0.35538
207.322	0.35427
207.7	0.35115
208.078	0.35198
208.456	0.35297
208.835	0.35512
209.213	0.35295
209.591	0.35926
209.969	0.35868
210.347	0.35354
210.725	0.35317
211.103	0.35375
211.481	0.3554
211.859	0.36011
212.237	0.35824
212.614	0.35706
212.992	0.35562
213.37	0.35284
213.748	0.35697
214.125	0.35677
214.503	0.36075
214.881	0.36052
215.258	0.36251
215.636	0.36378
216.013	0.36437
216.391	0.36299
216.768	0.36438
217.145	0.36123
217.523	0.35576
217.9	0.36196
218.277	0.36655
218.655	0.36391
219.032	0.36974
219.409	0.36811
219.786	0.36311
220.163	0.36706
220.54	0.36942
220.917	0.36731
221.294	0.36944
221.671	0.37042
222.048	0.3705
222.425	0.36621
222.802	0.36545
223.179	0.36527
223.556	0.36379
223.932	0.36679
224.309	0.36879
224.686	0.36648
225.062	0.36963
225.439	0.37481
225.815	0.3721
226.192	0.36963
226.568	0.37262
226.945	0.368
227.321	0.36582
227.698	0.36718
228.074	0.3679
228.45	0.3665
228.827	0.37566
229.203	0.38257
229.579	0.38235
229.955	0.38584
230.331	0.389
230.707	0.38795
231.083	0.38979
231.46	0.39116
231.835	0.39094
232.211	0.38857
232.587	0.39171
232.963	0.39345
233.339	0.39386
233.715	0.39814
234.091	0.39979
234.466	0.40293
234.842	0.40588
235.218	0.41015
235.593	0.40978
235.969	0.41431
236.344	0.41574
236.72	0.41545
237.095	0.41185
237.471	0.41173
237.846	0.41074
238.222	0.41114
238.597	0.41485
238.972	0.41807
239.348	0.41631
239.723	0.41957
240.098	0.42429
240.473	0.42425
240.848	0.42088
241.223	0.42015
241.598	0.4193
241.973	0.42229
242.348	0.42068
242.723	0.424
243.098	0.42622
243.473	0.42992
243.848	0.43049
244.223	0.42956
244.597	0.42515
244.972	0.4245
245.347	0.42776
245.721	0.42876
246.096	0.43349
246.47	0.4359
246.845	0.43356
247.219	0.4405
247.594	0.43585
247.968	0.43782
248.343	0.4366
248.717	0.44223
249.091	0.44318
249.466	0.44881
249.84	0.44845
250.214	0.44955
250.588	0.45057
250.962	0.45159
251.336	0.45786
251.71	0.45718
252.084	0.46228
252.458	0.46907
252.832	0.48112
253.206	0.48944
253.58	0.49133
253.954	0.48981
254.328	0.49051
254.702	0.49268
255.075	0.49228
255.449	0.49636
255.823	0.49482
256.196	0.49978
256.57	0.50037
256.943	0.5013
257.317	0.50265
257.69	0.50604
258.064	0.50914
258.437	0.51405
258.81	0.51181
259.184	0.50921
259.557	0.51452
259.93	0.51885
260.303	0.51766
260.677	0.51102
261.05	0.51084
261.423	0.51355
261.796	0.5156
262.169	0.52001
262.542	0.51957
262.915	0.5222
263.288	0.52289
263.661	0.52715
264.033	0.53188
264.406	0.5378
264.779	0.54036
265.152	0.54367
265.524	0.54668
265.897	0.54884
266.27	0.54685
266.642	0.55405
267.015	0.55838
267.387	0.55771
267.76	0.55791
268.132	0.56343
268.504	0.56779
268.877	0.56926
269.249	0.57145
269.621	0.5768
269.994	0.57927
270.366	0.58554
270.738	0.59428
271.11	0.6001
271.482	0.60658
271.854	0.60886
272.226	0.60971
272.598	0.61501
272.97	0.61765
273.342	0.622
273.714	0.63032
274.086	0.63938
274.458	0.6482
274.829	0.65085
275.201	0.66085
275.573	0.66507
275.944	0.67205
276.316	0.68109
276.688	0.68875
277.059	0.70619
277.431	0.71195
277.802	0.72286
278.173	0.73812
278.545	0.76463
278.916	0.80269
279.287	0.84881
279.659	0.91186
280.03	0.98355
280.401	1.05849
280.772	1.12909
281.143	1.19319
281.515	1.2478
281.886	1.29513
282.257	1.3317
282.628	1.36341
282.998	1.38784
283.369	1.40522
283.74	1.41785
284.111	1.42834
284.482	1.4366
284.853	1.44035
285.223	1.44395
285.594	1.4456
285.965	1.44616
286.335	1.44552
286.706	1.44355
287.076	1.44033
287.447	1.43687
287.817	1.43299
288.188	1.42851
288.558	1.42346
288.928	1.41782
289.299	1.4112
289.669	1.40436
290.039	1.39708
290.409	1.38932
290.779	1.38163
291.149	1.37376
291.52	1.3654
291.89	1.35728
292.26	1.34921
292.629	1.34103
292.999	1.333
293.369	1.32517
293.739	1.31782
294.109	1.31006
294.479	1.30256
294.848	1.29518
295.218	1.28858
295.588	1.28147
295.957	1.27428
296.327	1.26745
296.696	1.2605
297.066	1.25425
297.435	1.24748
297.805	1.24084
298.174	1.23457
298.544	1.22781
298.913	1.22149
299.282	1.21532
299.651	1.20907
300.021	1.20266
300.39	1.19683
300.759	1.19152
301.128	1.18631
301.497	1.18111
301.866	1.17636
302.235	1.17165
302.604	1.16693
302.973	1.16183
303.342	1.15681
303.71	1.15205
304.079	1.14707
304.448	1.14218
304.817	1.13699
305.185	1.13158
305.554	1.12589
305.923	1.12028
306.291	1.11489
306.66	1.10931
307.028	1.10385
307.397	1.09835
307.765	1.09293
308.133	1.08753
308.502	1.08216
308.87	1.07671
309.238	1.07174
309.606	1.06698
309.975	1.0622
310.343	1.05795
310.711	1.05388
311.079	1.05031
311.447	1.04654
311.815	1.04281
312.183	1.03948
312.551	1.03616
312.919	1.0336
313.286	1.03115
313.654	1.02893
314.022	1.02701
314.39	1.02526
314.757	1.02374
315.125	1.022
315.492	1.02063
315.86	1.0191
316.228	1.01719
316.595	1.01558
316.962	1.01372
317.33	1.01124
317.697	1.00898
318.065	1.00631
318.432	1.00352
318.799	1.00023
319.166	0.99707
319.534	0.99415
319.901	0.991
320.268	0.98827
320.635	0.98573
321.002	0.98319
321.369	0.98084
321.736	0.97826
322.103	0.97577
322.47	0.97321
322.836	0.97097
323.203	0.96853
323.57	0.96635
323.937	0.96419
324.303	0.96208
324.67	0.96005
325.037	0.95802
325.403	0.95633
325.77	0.95478
326.136	0.95325
326.503	0.95209
326.869	0.95074
327.235	0.94946
327.602	0.94843
327.968	0.94729
328.334	0.94563
328.7	0.94433
329.067	0.94283
329.433	0.94148
329.799	0.94004
330.165	0.93877
330.531	0.93748
330.897	0.93624
331.263	0.93508
331.629	0.93411
331.995	0.93341
332.36	0.93261
332.726	0.93215
333.092	0.93165
333.458	0.93117
333.823	0.93061
334.189	0.93001
334.554	0.92978
334.92	0.92933
335.286	0.92897
335.651	0.92849
336.016	0.92816
336.382	0.92794
336.747	0.92757
337.113	0.92724
337.478	0.92702
337.843	0.9269
338.208	0.92669
338.573	0.92658
338.939	0.92643
339.304	0.92646
339.669	0.92604
340.034	0.9259
340.399	0.92595
340.764	0.92583
341.129	0.9257
341.493	0.92587
341.858	0.92593
342.223	0.92597
342.588	0.92633
342.952	0.92621
343.317	0.92634
343.682	0.92653
344.046	0.92662
344.411	0.927
344.775	0.9272
345.14	0.92743
345.504	0.92767
345.869	0.92794
346.233	0.92823
346.597	0.92838
346.962	0.92841
347.326	0.92888
347.69	0.92898
348.054	0.92898
348.418	0.92915
348.782	0.92918
349.146	0.92957
349.51	0.92962
349.874	0.92993
350.238	0.93023
350.602	0.93053
350.966	0.93087
351.33	0.93109
351.693	0.93145
352.057	0.93154
352.421	0.93204
352.784	0.93263
353.148	0.93311
353.512	0.93376
353.875	0.93428
354.239	0.93494
354.602	0.93585
354.966	0.93662
355.329	0.93754
355.692	0.93856
356.056	0.93953
356.419	0.94082
356.782	0.94163
357.145	0.94315
357.508	0.94442
357.871	0.94546
358.234	0.94686
358.597	0.9482
358.96	0.9498
359.323	0.95133
359.686	0.9532
360.049	0.95471
360.412	0.95612
360.775	0.9577
361.137	0.95947
361.5	0.96162
361.863	0.96359
362.225	0.96555
362.588	0.96735
362.951	0.96951
363.313	0.97155
363.675	0.97362
364.038	0.97589
364.4	0.97801
364.763	0.98009
365.125	0.98243
365.487	0.98475
365.849	0.98708
366.212	0.9895
366.574	0.99194
366.936	0.99437
367.298	0.99694
367.66	0.99968
368.022	1.00255
368.384	1.00544
368.746	1.00846
369.108	1.01151
369.469	1.01468
369.831	1.01797
370.193	1.02134
370.555	1.02462
370.916	1.02811
371.278	1.03159
371.64	1.0352
372.001	1.03904
372.363	1.04265
372.724	1.04624
373.086	1.05021
373.447	1.05399
373.808	1.05809
374.17	1.06208
374.531	1.06633
374.892	1.06999
375.253	1.07401
375.615	1.07826
375.976	1.08245
376.337	1.08676
376.698	1.09095
377.059	1.09502
377.42	1.09925
377.781	1.10356
378.141	1.10826
378.502	1.11293
378.863	1.11793
379.224	1.12314
379.585	1.1283
379.945	1.1338
380.306	1.13909
380.666	1.1441
381.027	1.14977
381.388	1.15507
381.748	1.16055
382.108	1.16612
382.469	1.17197
382.829	1.17816
383.19	1.1843
383.55	1.19071
383.91	1.19698
384.27	1.20357
384.63	1.21055
384.991	1.21721
385.351	1.22392
385.711	1.23019
386.071	1.23697
386.431	1.24365
386.791	1.25032
387.15	1.25723
387.51	1.26433
387.87	1.27167
388.23	1.27932
388.589	1.287
388.949	1.2942
389.309	1.30211
389.668	1.30963
390.028	1.31783
390.387	1.32512
390.747	1.33284
391.106	1.34084
391.466	1.34838
391.825	1.35572
392.184	1.3634
392.544	1.37153
392.903	1.37947
393.262	1.38828
393.621	1.39655
393.98	1.40526
394.339	1.41354
394.698	1.42258
395.057	1.43129
395.416	1.44015
395.775	1.44916
396.134	1.45774
396.493	1.46753
396.852	1.47657
397.211	1.48625
397.569	1.49499
397.928	1.50492
398.287	1.51466
398.645	1.524
399.004	1.53392
399.362	1.54411
399.721	1.55421
400.079	1.564
400.438	1.57456
400.796	1.5844
401.154	1.59459
401.512	1.60541
401.871	1.61672
402.229	1.62743
402.587	1.63863
402.945	1.64911
403.303	1.65879
403.661	1.66973
404.019	1.68095
404.377	1.69248
404.735	1.70346
405.093	1.7156
405.451	1.7265
405.808	1.73701
406.166	1.74779
406.524	1.75815
406.882	1.76857
407.239	1.78043
407.597	1.79148
407.954	1.80213
408.312	1.81252
408.669	1.82483
409.027	1.83611
409.384	1.84647
409.741	1.85559
410.099	1.86664
410.456	1.87728
410.813	1.8889
411.17	1.89846
411.527	1.9059
411.884	1.91509
412.242	1.9248
412.599	1.93391
412.956	1.94337
413.312	1.9529
413.669	1.96041
414.026	1.96806
414.383	1.97633
414.74	1.9816
415.096	1.98839
415.453	1.99598
415.81	2.00117
416.166	2.00763
416.523	2.01359
416.879	2.01864
417.236	2.02504
417.592	2.02774
417.949	2.03414
418.305	2.03896
418.661	2.04619
419.018	2.05265
419.374	2.0557
419.73	2.05756
420.086	2.05767
420.442	2.05618
420.798	2.05495
421.154	2.05623
421.51	2.05483
421.866	2.04999
422.222	2.04773
422.578	2.04634
422.934	2.04131
423.29	2.0403
423.646	2.03179
424.001	2.02441
424.357	2.01853
424.713	2.01339
425.068	2.00656
425.424	1.9945
425.779	1.98539
426.135	1.97309
426.49	1.96499
426.845	1.95434
427.201	1.94303
427.556	1.93197
427.911	1.92497
428.266	1.91308
428.622	1.89946
428.977	1.89117
429.332	1.88885
429.687	1.87865
430.042	1.86974
430.397	1.86587
430.752	1.85871
431.107	1.85779
431.461	1.85278
431.816	1.84964
432.171	1.84324
432.526	1.84203
432.88	1.84356
433.235	1.83952
433.59	1.83448
433.944	1.82769
434.299	1.82107
434.653	1.81693
435.008	1.8136
435.362	1.80717
435.716	1.80499
436.071	1.80107
436.425	1.79731
436.779	1.79177
437.133	1.78845
437.487	1.78388
437.841	1.77481
438.195	1.76787
438.549	1.76036
438.903	1.75304
439.257	1.74592
439.611	1.74019
439.965	1.73087
440.319	1.72118
440.673	1.71515
441.026	1.70667
441.38	1.69994
441.734	1.69054
442.087	1.68096
442.441	1.67222
442.794	1.66721
443.148	1.65978
443.501	1.65681
443.855	1.65058
444.208	1.64099
444.561	1.63382
444.915	1.62705
445.268	1.62295
445.621	1.62049
445.974	1.61276
446.327	1.60987
446.68	1.604
447.033	1.59934
447.386	1.59329
447.739	1.58312
448.092	1.57714
448.445	1.57118
448.798	1.56303
449.15	1.55689
449.503	1.55354
449.856	1.54853
450.209	1.53975
450.561	1.53286
450.914	1.52592
451.266	1.51889
451.619	1.51338
451.971	1.50529
452.323	1.49816
452.676	1.48795
453.028	1.47718
453.38	1.4683
453.733	1.45796
454.085	1.45043
454.437	1.44065
454.789	1.43241
455.141	1.42524
455.493	1.41575
455.845	1.40665
456.197	1.39784
456.549	1.39029
456.901	1.38077
457.253	1.37191
457.604	1.36414
457.956	1.35491
458.308	1.34503
458.659	1.33703
459.011	1.32791
459.362	1.32156
459.714	1.31204
460.065	1.30458
460.417	1.29565
460.768	1.28731
461.12	1.28011
461.471	1.27086
461.822	1.26221
462.173	1.25338
462.525	1.24543
462.876	1.23756
463.227	1.22904
463.578	1.22182
463.929	1.21398
464.28	1.20656
464.631	1.19874
464.982	1.19151
465.332	1.18399
465.683	1.17639
466.034	1.16852
466.385	1.16179
466.735	1.15371
467.086	1.14653
467.437	1.13967
467.787	1.13468
468.138	1.12857
468.488	1.12141
468.839	1.11477
469.189	1.10914
469.539	1.1034
469.89	1.09709
470.24	1.09034
470.59	1.085
470.94	1.07804
471.29	1.07256
471.64	1.06609
471.99	1.05969
472.34	1.05396
472.69	1.04891
473.04	1.04263
473.39	1.03723
473.74	1.03148
474.09	1.0263
474.439	1.02103
474.789	1.0157
475.139	1.00951
475.488	1.00468
475.838	0.99862
476.188	0.994
476.537	0.98833
476.886	0.98284
477.236	0.97741
477.585	0.97235
477.935	0.96705
478.284	0.96251
478.633	0.95743
478.982	0.95265
479.331	0.94804
479.68	0.9427
480.03	0.93776
480.379	0.9342
480.728	0.93037
481.076	0.92597
481.425	0.92171
481.774	0.91736
482.123	0.91295
482.472	0.90845
482.821	0.90438
483.169	0.9006
483.518	0.89606
483.866	0.89163
484.215	0.88752
484.563	0.88392
484.912	0.87952
485.26	0.87534
485.609	0.87107
485.957	0.86736
486.305	0.86319
486.654	0.85889
487.002	0.85496
487.35	0.85137
487.698	0.84706
488.046	0.84263
488.394	0.83864
488.742	0.83453
489.09	0.83056
489.438	0.82674
489.786	0.82335
490.134	0.81929
490.482	0.81533
490.829	0.81163
491.177	0.80802
491.525	0.80434
491.872	0.80005
492.22	0.79642
492.567	0.79305
492.915	0.78938
493.262	0.78542
493.61	0.78202
493.957	0.77857
494.304	0.77511
494.652	0.77126
494.999	0.76753
495.346	0.76374
495.693	0.75987
496.04	0.75633
496.387	0.7527
496.734	0.74937
497.081	0.74566
497.428	0.74199
497.775	0.73851
498.122	0.73528
498.469	0.73199
498.816	0.72842
499.162	0.72524
499.509	0.72233
499.856	0.71879
500.202	0.71577
500.549	0.71288
500.895	0.70941
501.242	0.70634
501.588	0.70319
501.935	0.70012
502.281	0.69738
502.627	0.69419
502.973	0.69136
503.32	0.68818
503.666	0.68544
504.012	0.68247
504.358	0.6796
504.704	0.67648
505.05	0.67349
505.396	0.67041
505.742	0.66736
506.088	0.66488
506.433	0.66216
506.779	0.6592
507.125	0.65655
507.471	0.65358
507.816	0.65028
508.162	0.64749
508.507	0.6449
508.853	0.64188
509.198	0.63909
509.544	0.63628
509.889	0.63354
510.234	0.63078
510.58	0.62803
510.925	0.62516
511.27	0.62239
511.615	0.61939
511.96	0.61691
512.306	0.61467
512.651	0.61178
512.996	0.60928
513.341	0.60662
513.685	0.6042
514.03	0.60147
514.375	0.5988
514.72	0.59626
515.065	0.59371
515.409	0.59099
515.754	0.58825
516.099	0.58608
516.443	0.58323
516.788	0.5804
517.132	0.57791
517.476	0.57542
517.821	0.57282
518.165	0.57015
518.51	0.56746
518.854	0.56486
519.198	0.56202
519.542	0.55922
519.886	0.55648
520.23	0.55382
520.574	0.5512
520.918	0.54824
521.262	0.54547
521.606	0.54266
521.95	0.54018
522.294	0.53745
522.638	0.53515
522.981	0.53254
523.325	0.52963
523.669	0.52731
524.012	0.52492
524.356	0.52234
524.699	0.51959
525.043	0.51728
525.386	0.51485
525.73	0.51241
526.073	0.50985
526.416	0.50749
526.76	0.50504
527.103	0.50252
527.446	0.50008
527.789	0.49755
528.132	0.49512
528.475	0.49273
528.818	0.49037
529.161	0.48774
529.504	0.48542
529.847	0.48265
530.19	0.48039
530.532	0.47827
530.875	0.47573
531.218	0.47313
531.56	0.47067
531.903	0.46835
532.246	0.46588
532.588	0.46352
532.93	0.46122
533.273	0.45898
533.615	0.4567
533.958	0.45427
534.3	0.45206
534.642	0.44963
534.984	0.44716
535.326	0.44502
535.669	0.44274
536.011	0.44053
536.353	0.43832
536.695	0.43608
537.037	0.434
537.378	0.43151
537.72	0.42923
538.062	0.4269
538.404	0.42482
538.746	0.42268
539.087	0.42049
539.429	0.41821
539.77	0.41592
540.112	0.41361
540.454	0.41143
540.795	0.40907
541.136	0.40686
541.478	0.40475
541.819	0.4025
542.16	0.40046
542.502	0.39827
542.843	0.39614
543.184	0.39394
543.525	0.39178
543.866	0.38964
544.207	0.38757
544.548	0.38562
544.889	0.38342
545.23	0.38154
545.571	0.37955
545.911	0.37767
546.252	0.37583
546.593	0.37391
546.934	0.37208
547.274	0.3701
547.615	0.36819
547.955	0.36648
548.296	0.36473
548.636	0.36277
548.977	0.36095
549.317	0.35891
549.657	0.35708
549.997	0.35528
550.338	0.35348
550.678	0.35174
551.018	0.35
551.358	0.3481
551.698	0.34639
552.038	0.3445
552.378	0.34276
552.718	0.34089
553.058	0.33901
553.398	0.33711
553.737	0.3354
554.077	0.33363
554.417	0.33198
554.756	0.33035
555.096	0.32885
555.435	0.32706
555.775	0.3255
556.114	0.32392
556.454	0.32245
556.793	0.32082
557.133	0.31938
557.472	0.31783
557.811	0.31638
558.15	0.31488
558.489	0.31353
558.829	0.31187
559.168	0.31047
559.507	0.30906
559.846	0.30758
560.184	0.30626
560.523	0.30488
560.862	0.30351
561.201	0.30211
561.54	0.3008
561.878	0.29926
562.217	0.29764
562.556	0.29637
562.894	0.29512
563.233	0.29388
563.571	0.29268
563.91	0.29134
564.248	0.29001
564.586	0.28884
564.925	0.28758
565.263	0.28639
565.601	0.2851
565.939	0.28411
566.277	0.28291
566.616	0.28168
566.954	0.28058
567.292	0.27922
567.63	0.27805
567.967	0.27675
568.305	0.27566
568.643	0.27433
568.981	0.27326
569.319	0.27217
569.656	0.27095
569.994	0.2697
570.331	0.26848
570.669	0.2673
571.006	0.26632
571.344	0.26521
571.681	0.26404
572.019	0.26286
572.356	0.26166
572.693	0.26058
573.03	0.25931
573.368	0.25825
573.705	0.25727
574.042	0.25617
574.379	0.25515
574.716	0.25402
575.053	0.25316
575.39	0.25183
575.727	0.25077
576.063	0.24973
576.4	0.24854
576.737	0.24747
577.074	0.24649
577.41	0.24552
577.747	0.24452
578.083	0.24349
578.42	0.24238
578.756	0.24137
579.093	0.24042
579.429	0.23952
579.766	0.23861
580.102	0.23769
580.438	0.23664
580.774	0.23557
581.11	0.23459
581.446	0.2338
581.782	0.23292
582.119	0.23185
582.454	0.2311
582.79	0.23023
583.126	0.22929
583.462	0.22845
583.798	0.22765
584.134	0.22673
584.469	0.22575
584.805	0.22475
585.141	0.22383
585.476	0.22308
585.812	0.22229
586.147	0.22147
586.482	0.22051
586.818	0.21973
587.153	0.21887
587.488	0.21811
587.824	0.2172
588.159	0.21628
588.494	0.21538
588.829	0.21455
589.164	0.2139
589.499	0.21319
589.834	0.21252
590.169	0.21194
590.504	0.21133
590.839	0.21055
591.174	0.20991
591.508	0.20934
591.843	0.20861
592.178	0.20781
592.512	0.20704
592.847	0.20625
593.181	0.20539
593.516	0.20477
593.85	0.20397
594.185	0.20346
594.519	0.20279
594.853	0.20221
595.187	0.20165
595.522	0.20096
595.856	0.20026
596.19	0.19958
596.524	0.19898
596.858	0.19826
597.192	0.1974
597.526	0.19677
597.86	0.19607
598.194	0.19531
598.527	0.1946
598.861	0.19393
599.195	0.19325
599.528	0.19271
599.862	0.19211
600.196	0.19145
600.529	0.19088
600.863	0.19019
601.196	0.18943
601.529	0.18875
601.863	0.18807
602.196	0.18745
602.529	0.18685
602.862	0.18627
603.196	0.18555
603.529	0.18485
603.862	0.18427
604.195	0.18378
604.528	0.18307
604.861	0.18256
605.193	0.18201
605.526	0.18141
605.859	0.18101
606.192	0.18054
606.524	0.17989
606.857	0.17931
607.19	0.17872
607.522	0.17803
607.855	0.17759
608.187	0.17685
608.52	0.17628
608.852	0.17584
609.184	0.17537
609.517	0.17492
609.849	0.17451
610.181	0.17399
610.513	0.17327
610.845	0.17287
611.177	0.17243
611.509	0.17202
611.841	0.17142
612.173	0.17083
612.505	0.1703
612.837	0.1699
613.169	0.16932
613.5	0.16889
613.832	0.1683
614.164	0.16792
614.495	0.16744
614.827	0.16672
615.158	0.16622
615.49	0.16583
615.821	0.16535
616.152	0.16468
616.484	0.16415
616.815	0.16356
617.146	0.16317
617.477	0.16292
617.808	0.16228
618.14	0.1616
618.471	0.16097
618.802	0.16057
619.133	0.16022
619.463	0.15972
619.794	0.15894
620.125	0.15855
620.456	0.15807
620.787	0.15771
621.117	0.15711
621.448	0.15658
621.778	0.15633
622.109	0.15597
622.439	0.15559
622.77	0.15507
623.1	0.15475
623.43	0.15426
623.761	0.15388
624.091	0.15325
624.421	0.15272
624.751	0.15236
625.081	0.15191
625.412	0.1515
625.742	0.15098
626.072	0.15043
626.401	0.14995
626.731	0.14952
627.061	0.14906
627.391	0.14841
627.721	0.14806
628.05	0.1478
628.38	0.14753
628.71	0.14695
629.039	0.14649
629.369	0.14602
629.698	0.14568
630.028	0.14518
630.357	0.14474
630.686	0.14431
631.015	0.14399
631.345	0.14372
631.674	0.14331
632.003	0.14307
632.332	0.14276
632.661	0.14246
632.99	0.14215
633.319	0.14182
633.648	0.14155
633.977	0.14113
634.306	0.14101
634.634	0.14042
634.963	0.14005
635.292	0.13959
635.62	0.13918
635.949	0.13902
636.277	0.13853
636.606	0.13821
636.934	0.1381
637.263	0.13766
637.591	0.13731
637.919	0.13696
638.248	0.13652
638.576	0.1361
638.904	0.13572
639.232	0.13538
639.56	0.13498
639.888	0.13465
640.216	0.13435
640.544	0.13408
640.872	0.13387
641.2	0.13341
641.528	0.13314
641.855	0.1328
642.183	0.13254
642.511	0.13235
642.838	0.13194
643.166	0.13169
643.493	0.13131
643.821	0.13079
644.148	0.13066
644.475	0.13041
644.803	0.13011
645.13	0.12983
645.457	0.12976
645.784	0.12941
646.112	0.12904
646.439	0.12874
646.766	0.12842
647.093	0.12831
647.42	0.12791
647.746	0.12742
648.073	0.12717
648.4	0.12696
648.727	0.12653
649.053	0.12624
649.38	0.12602
649.707	0.12562
650.033	0.12537
650.36	0.12508
650.686	0.12482
651.013	0.12449
651.339	0.12411
651.665	0.1239
651.992	0.12365
652.318	0.12322
652.644	0.12284
652.97	0.12262
653.296	0.12249
653.622	0.12229
653.948	0.12188
654.274	0.12177
654.6	0.12173
654.926	0.12152
655.252	0.12126
655.578	0.12109
655.903	0.12082
656.229	0.12054
656.555	0.1204
656.88	0.12022
657.206	0.12002
657.531	0.11977
657.857	0.11957
658.182	0.11937
658.507	0.11911
658.833	0.1188
659.158	0.11863
659.483	0.11846
659.808	0.11816
660.133	0.11781
660.458	0.11739
660.783	0.11711
661.108	0.11675
661.433	0.11645
661.758	0.11625
662.083	0.1159
662.408	0.11573
662.732	0.11557
663.057	0.11517
663.382	0.1149
663.706	0.11457
664.031	0.11435
664.355	0.11423
664.68	0.11407
665.004	0.11393
665.328	0.11364
665.653	0.11341
665.977	0.1131
666.301	0.11292
666.625	0.11265
666.949	0.11252
667.273	0.11239
667.597	0.11218
667.921	0.11207
668.245	0.11185
668.569	0.1116
668.893	0.11145
669.217	0.11127
669.54	0.11101
669.864	0.11092
670.188	0.11078
670.511	0.11068
670.835	0.11042
671.158	0.11021
671.482	0.10999
671.805	0.10958
672.128	0.10953
672.452	0.10943
672.775	0.10917
673.098	0.109
673.421	0.10879
673.744	0.10858
674.068	0.10834
674.391	0.10828
674.714	0.10809
675.036	0.10789
675.359	0.10758
675.682	0.10726
676.005	0.10704
676.328	0.10687
676.65	0.10671
676.973	0.10648
677.295	0.10619
677.618	0.10586
677.94	0.10556
678.263	0.10518
678.585	0.10507
678.908	0.10469
679.23	0.10448
679.552	0.10431
679.874	0.1041
680.196	0.10399
680.519	0.10365
680.841	0.1035
681.163	0.10308
681.485	0.10268
681.807	0.10249
682.128	0.10239
682.45	0.10232
682.772	0.10227
683.094	0.10206
683.415	0.10176
683.737	0.10154
684.059	0.1014
684.38	0.10128
684.702	0.10111
685.023	0.10093
685.344	0.10081
685.666	0.10065
685.987	0.10043
686.308	0.10027
686.629	0.09999
686.95	0.09984
687.272	0.09978
687.593	0.09973
687.914	0.09958
688.235	0.09947
688.555	0.09935
688.876	0.09912
689.197	0.09906
689.518	0.09883
689.839	0.09859
690.159	0.09863
690.48	0.09852
690.8	0.09843
691.121	0.09822
691.441	0.09813
691.762	0.09805
692.082	0.09792
692.402	0.09783
692.723	0.09756
693.043	0.09757
693.363	0.09759
693.683	0.09735
694.003	0.09726
694.323	0.09687
694.643	0.09673
694.963	0.09661
695.283	0.09633
695.603	0.09624
695.923	0.096
696.243	0.09577
696.562	0.09558
696.882	0.09529
697.202	0.095
697.521	0.09465
697.841	0.09466
698.16	0.09442
698.479	0.09429
698.799	0.09419
699.118	0.0941
699.437	0.09394
699.757	0.09361
700.076	0.09331
700.395	0.09317
700.714	0.09282
701.033	0.09263
701.352	0.09254
701.671	0.09225
701.99	0.09219
702.308	0.09201
702.627	0.09194
702.946	0.09182
703.265	0.09174
703.583	0.09166
703.902	0.09149
704.22	0.09127
704.539	0.09106
704.857	0.09089
705.176	0.09065
705.494	0.09031
705.812	0.08993
706.131	0.08983
706.449	0.08963
706.767	0.0895
707.085	0.08945
707.403	0.08941
707.721	0.08936
708.039	0.08915
708.357	0.08925
708.675	0.08898
708.993	0.08873
709.31	0.0884
709.628	0.08807
709.946	0.08791
710.263	0.08754
710.581	0.08746
710.898	0.08737
711.216	0.08702
711.533	0.0869
711.851	0.08666
712.168	0.08649
712.485	0.08651
712.802	0.08624
713.12	0.08604
713.437	0.08597
713.754	0.08578
714.071	0.08554
714.388	0.08545
714.705	0.08518
715.022	0.08495
715.338	0.08489
715.655	0.08477
715.972	0.08463
716.289	0.08467
716.605	0.08437
716.922	0.08423
717.238	0.0841
717.555	0.08406
717.871	0.08399
718.188	0.08378
718.504	0.08378
718.82	0.08351
719.136	0.08315
719.453	0.08308
719.769	0.08302
720.085	0.08275
720.401	0.08255
720.717	0.08237
721.033	0.08224
721.349	0.08237
721.665	0.08219
721.98	0.08193
722.296	0.08204
722.612	0.08204
722.927	0.08176
723.243	0.08182
723.559	0.08169
723.874	0.08164
724.19	0.08154
724.505	0.08149
724.82	0.08139
725.136	0.08126
725.451	0.0812
725.766	0.08123
726.081	0.08114
726.396	0.0811
726.711	0.08104
727.026	0.08098
727.341	0.08079
727.656	0.08059
727.971	0.08033
728.286	0.08027
728.601	0.08013
728.916	0.0799
729.23	0.07976
729.545	0.07968
729.859	0.07937
730.174	0.07937
730.488	0.07917
730.803	0.07909
731.117	0.0791
731.431	0.07891
731.746	0.07864
732.06	0.07859
732.374	0.07839
732.688	0.07811
733.002	0.07773
733.316	0.07746
733.63	0.0773
733.944	0.07714
734.258	0.07693
734.572	0.07683
734.886	0.07659
735.199	0.07653
735.513	0.07637
735.827	0.07615
736.14	0.07606
736.454	0.07607
736.767	0.07588
737.081	0.07561
737.394	0.07541
737.708	0.0751
738.021	0.07472
738.334	0.07471
738.647	0.07457
738.96	0.07466
739.273	0.07481
739.587	0.07481
739.9	0.07462
740.212	0.07451
740.525	0.07465
740.838	0.07461
741.151	0.07476
741.464	0.0747
741.776	0.07448
742.089	0.07434
742.402	0.07427
742.714	0.07415
743.027	0.07397
743.339	0.07379
743.651	0.0738
743.964	0.07358
744.276	0.07332
744.588	0.07357
744.901	0.07343
745.213	0.07337
745.525	0.07312
745.837	0.07278
746.149	0.07286
746.461	0.07295
746.773	0.07289
747.085	0.07274
747.396	0.07249
747.708	0.07207
748.02	0.07224
748.331	0.07225
748.643	0.07197
748.955	0.07181
749.266	0.07191
749.577	0.07191
749.889	0.07208
750.2	0.07196
750.512	0.07206
750.823	0.07241
751.134	0.0722
751.445	0.07219
751.756	0.07212
752.067	0.07214
752.378	0.07214
752.689	0.0718
753	0.07184
753.311	0.07188
753.622	0.07185
753.932	0.07184
754.243	0.0719
754.554	0.07152
754.864	0.07156
755.175	0.07171
755.485	0.07166
755.796	0.07131
756.106	0.0712
756.417	0.071
756.727	0.0709
757.037	0.07049
757.347	0.07026
757.658	0.07023
757.968	0.07018
758.278	0.06993
758.588	0.06963
758.898	0.0696
759.208	0.0696
759.517	0.06929
759.827	0.069
760.137	0.06901
760.447	0.06885
760.756	0.06874
761.066	0.06865
761.375	0.06843
761.685	0.06821
761.994	0.06817
762.304	0.06806
762.613	0.06803
762.922	0.06801
763.232	0.06794
763.541	0.06784
763.85	0.06756
764.159	0.06744
764.468	0.06723
764.777	0.06725
765.086	0.06739
765.395	0.06724
765.704	0.06711
766.013	0.06715
766.321	0.06719
766.63	0.06687
766.939	0.06701
767.247	0.06674
767.556	0.06654
767.864	0.06666
768.173	0.06651
768.481	0.06646
768.789	0.0664
769.098	0.06628
769.406	0.06606
769.714	0.06578
770.022	0.06586
770.33	0.06551
770.638	0.06555
770.946	0.06549
771.254	0.06536
771.562	0.06508
771.87	0.06476
772.178	0.06466
772.486	0.06441
772.793	0.06408
773.101	0.064
773.408	0.06398
773.716	0.06393
774.023	0.06378
774.331	0.06323
774.638	0.06306
774.946	0.06293
775.253	0.06286
775.56	0.06275
775.867	0.06292
776.174	0.06282
776.481	0.06294
776.788	0.06317
777.095	0.0629
777.402	0.06261
777.709	0.06256
778.016	0.06231
778.323	0.06267
778.63	0.06247
778.936	0.06254
779.243	0.06238
779.549	0.06212
779.856	0.06182
780.162	0.0619
780.469	0.06188
780.775	0.06222
781.082	0.06251
781.388	0.06238
781.694	0.0623
782	0.06232
782.306	0.06195
782.612	0.06179
782.918	0.06141
783.224	0.06125
783.53	0.06144
783.836	0.06144
784.142	0.06126
784.448	0.06123
784.753	0.06102
785.059	0.06112
785.365	0.06084
785.67	0.06081
785.976	0.06125
786.281	0.06138
786.586	0.06118
786.892	0.06124
787.197	0.0609
787.502	0.06044
787.808	0.06043
788.113	0.06032
788.418	0.06009
788.723	0.05978
789.028	0.05995
789.333	0.05985
789.638	0.05978
789.942	0.05984
790.247	0.06002
790.552	0.06026
790.857	0.06022
791.161	0.05988
791.466	0.05966
791.77	0.05958
792.075	0.0596
792.379	0.05937
792.684	0.05902
792.988	0.05877
793.292	0.05857
793.597	0.05809
793.901	0.05824
794.205	0.05809
794.509	0.05805
794.813	0.0576
795.117	0.05728
795.421	0.05717
795.725	0.0569
796.029	0.0567
796.332	0.05624
796.636	0.05586
796.94	0.05532
797.243	0.0552
797.547	0.05543
797.85	0.05568
798.154	0.05592
798.457	0.05596
798.761	0.05555
799.064	0.05543
799.367	0.05541
799.67	0.05521
799.973	0.05557
800.277	0.05558
800.58	0.05532
800.883	0.05513
801.186	0.05525
801.488	0.05528
801.791	0.05503
802.094	0.05519
802.397	0.05525
802.699	0.05475
803.002	0.05502
803.305	0.05479
803.607	0.05465
803.91	0.05408
804.212	0.05406
804.515	0.05345
804.817	0.05345
805.119	0.05349
805.421	0.0535
805.724	0.05366
806.026	0.05358
806.328	0.05345
806.63	0.05329
806.932	0.05283
807.234	0.05264
807.535	0.05258
807.837	0.0528
808.139	0.05327
808.441	0.05324
808.742	0.05306
809.044	0.05317
809.346	0.05292
809.647	0.05326
809.948	0.05347
810.25	0.05345
810.551	0.05295
810.853	0.05304
811.154	0.05239
811.455	0.05184
811.756	0.05151
812.057	0.05057
812.358	0.05052
812.659	0.05051
812.96	0.04993
813.261	0.05038
813.562	0.05027
813.863	0.05023
814.163	0.0501
814.464	0.04968
814.765	0.04942
815.065	0.04949
815.366	0.04962
815.666	0.04942
815.967	0.04923
816.267	0.04871
816.567	0.04909
816.868	0.04923
817.168	0.04902
817.468	0.04916
817.768	0.04977
818.068	0.04993
818.368	0.05043
818.668	0.05009
818.968	0.04962
819.268	0.04953
819.568	0.04935
819.867	0.04943
820.167	0.04922
820.467	0.04979
820.766	0.04975
821.066	0.04965
821.365	0.0496
821.665	0.04921
821.964	0.04933
822.263	0.04917
822.563	0.04927
822.862	0.04903
823.161	0.04862
823.46	0.04796
823.759	0.04808
824.058	0.04774
824.357	0.04797
824.656	0.04843
824.955	0.04913
825.254	0.0488
825.552	0.04885
825.851	0.04884
826.15	0.04864
826.448	0.04867
826.747	0.0484
827.045	0.04855
827.344	0.04854
827.642	0.04868
827.941	0.04904
828.239	0.04869
828.537	0.04857
828.835	0.04887
829.133	0.0487
829.432	0.04955
829.73	0.05112
830.028	0.05031
830.325	0.04979
830.623	0.04928
830.921	0.04907
831.219	0.04814
831.517	0.04864
831.814	0.04837
832.112	0.0482
832.409	0.04798
832.707	0.04801
833.004	0.04672
833.302	0.04631
833.599	0.04611
833.896	0.04548
834.194	0.04534
834.491	0.04539
834.788	0.04561
835.085	0.04567
835.382	0.04634
835.679	0.04529
835.976	0.04436
836.273	0.04556
836.57	0.04627
836.866	0.04638
837.163	0.04619
837.46	0.04639
837.756	0.04704
838.053	0.04811
838.349	0.04751
838.646	0.04807
838.942	0.04832
839.239	0.04943
839.535	0.04852
839.831	0.04805
840.127	0.0482
840.423	0.04772
840.72	0.04678
841.016	0.04548
841.312	0.04641
841.607	0.04621
841.903	0.04645
842.199	0.04679
842.495	0.04623
842.791	0.04572
843.086	0.04601
843.382	0.04569
843.677	0.04565
843.973	0.04425
844.268	0.04393
844.564	0.04634
844.859	0.04507
845.154	0.04583
845.45	0.04652
845.745	0.04733
846.04	0.04932
846.335	0.04945
846.63	0.05007
846.925	0.05213
847.22	0.05511
847.515	0.05383
847.81	0.05351
848.104	0.05169
848.399	0.05315
848.694	0.05269
848.988	0.05402
849.283	0.05532
849.578	0.05527
849.872	0.05485
850.166	0.05592
850.461	0.05665
850.755	0.05489
851.049	0.05792
851.343	0.05904
851.638	0.05976
851.932	0.063
852.226	0.06289
852.52	0.065
852.814	0.06856
853.107	0.06713
853.401	0.06703
853.695	0.06843
853.989	0.06856
854.282	0.06999
854.576	0.06902
854.869	0.07124
855.163	0.07285
855.456	0.06888
855.75	0.06809
856.043	0.0718
856.336	0.07505
856.63	0.07612
856.923	0.07695
857.216	0.07286
857.509	0.06856
857.802	0.07001
858.095	0.06919
858.388	0.06958
858.681	0.0702
858.974	0.06327
859.266	0.064
859.559	0.066
859.852	0.06778
860.144	0.06834
860.437	0.07451
860.729	0.07355
861.022	0.0771
861.314	0.07735
861.606	0.08203
861.899	0.08127
862.191	0.08131
862.483	0.07857
862.775	0.07709
863.067	0.07446
863.359	0.07829
863.651	0.07937
863.943	0.07533
864.235	0.07524
864.527	0.07657
864.819	0.07424
865.11	0.08352
865.402	0.08
865.693	0.07941
865.985	0.07318
866.276	0.07397
866.568	0.07498
866.859	0.08151
867.151	0.07957
867.442	0.0808
867.733	0.07966
868.024	0.08274
868.315	0.08164
868.606	0.08025
868.897	0.08525
869.188	0.09163
869.479	0.09541
869.77	0.10043
870.061	0.10336
870.351	0.1038
870.642	0.1036
870.933	0.10551
871.223	0.10156
871.514	0.11029
871.804	0.1124
872.095	0.12122
872.385	0.12575
872.675	0.12434
