Data from 2 hrs_Absorbance_14-27-38-199.txt Node
Date: Thu Feb 02 14:27:38 EST 2023
User: UV-vis
Spectrometer: FLMS04918
Trigger mode: 0
Integration Time (sec): 1.850000E-3
Scans to average: 10
Electric dark correction enabled: true
Nonlinearity correction enabled: false
Boxcar width: 10
XAxis mode: Wavelengths
Number of Pixels in Spectrum: 2048
>>>>>Begin Spectral Data<<<<<
179.23	-0
179.611	-0.98955
179.992	-1.66262
180.373	-0
180.754	-0
181.134	-0
181.515	-0
181.896	-0
182.276	-0
182.657	-0
183.038	-0
183.418	-0
183.799	-0
184.179	-0.08536
184.56	0.06661
184.94	0.09216
185.32	0.11019
185.701	0.11826
186.081	0.12504
186.461	0.13365
186.842	0.13809
187.222	0.13596
187.602	0.14656
187.982	0.14502
188.362	0.15104
188.742	0.15003
189.122	0.1424
189.502	0.14276
189.882	0.14539
190.262	0.14359
190.642	0.1468
191.022	0.14792
191.402	0.14845
191.781	0.1475
192.161	0.14942
192.541	0.15393
192.92	0.15626
193.3	0.15945
193.68	0.16161
194.059	0.15997
194.439	0.16246
194.818	0.16091
195.198	0.16161
195.577	0.1603
195.957	0.16563
196.336	0.16792
196.715	0.16609
197.094	0.16668
197.474	0.16998
197.853	0.16856
198.232	0.16999
198.611	0.16894
198.99	0.1693
199.369	0.1716
199.748	0.17454
200.127	0.17509
200.506	0.17492
200.885	0.17524
201.264	0.1735
201.643	0.17119
202.022	0.17209
202.401	0.16874
202.779	0.16975
203.158	0.17035
203.537	0.17099
203.915	0.16842
204.294	0.1632
204.673	0.16671
205.051	0.16749
205.43	0.16579
205.808	0.16393
206.187	0.16376
206.565	0.16321
206.943	0.16577
207.322	0.16728
207.7	0.16659
208.078	0.16507
208.456	0.16522
208.835	0.16573
209.213	0.16749
209.591	0.16977
209.969	0.17032
210.347	0.16992
210.725	0.16936
211.103	0.16979
211.481	0.17097
211.859	0.17476
212.237	0.17484
212.614	0.17325
212.992	0.17512
213.37	0.17647
213.748	0.17944
214.125	0.17937
214.503	0.18264
214.881	0.17816
215.258	0.17787
215.636	0.18259
216.013	0.18323
216.391	0.18259
216.768	0.18417
217.145	0.18452
217.523	0.18374
217.9	0.18413
218.277	0.18692
218.655	0.19071
219.032	0.19004
219.409	0.18544
219.786	0.18252
220.163	0.18446
220.54	0.18625
220.917	0.18565
221.294	0.18498
221.671	0.18501
222.048	0.18427
222.425	0.18089
222.802	0.18259
223.179	0.18093
223.556	0.1778
223.932	0.17838
224.309	0.18054
224.686	0.17868
225.062	0.17829
225.439	0.18146
225.815	0.17991
226.192	0.17922
226.568	0.17859
226.945	0.18259
227.321	0.18411
227.698	0.18643
228.074	0.18558
228.45	0.18657
228.827	0.18782
229.203	0.19066
229.579	0.19324
229.955	0.19577
230.331	0.19932
230.707	0.20337
231.083	0.20907
231.46	0.20898
231.835	0.20923
232.211	0.20615
232.587	0.20793
232.963	0.20916
233.339	0.20733
233.715	0.21101
234.091	0.21421
234.466	0.21573
234.842	0.21383
235.218	0.21593
235.593	0.21406
235.969	0.21662
236.344	0.2165
236.72	0.21971
237.095	0.21726
237.471	0.2162
237.846	0.21716
238.222	0.21202
238.597	0.21365
238.972	0.2106
239.348	0.20921
239.723	0.21098
240.098	0.21144
240.473	0.21201
240.848	0.21302
241.223	0.2149
241.598	0.21653
241.973	0.2162
242.348	0.21536
242.723	0.2158
243.098	0.22109
243.473	0.21864
243.848	0.21733
244.223	0.2189
244.597	0.21631
244.972	0.21696
245.347	0.21902
245.721	0.22133
246.096	0.2293
246.47	0.23005
246.845	0.2317
247.219	0.2377
247.594	0.23911
247.968	0.24372
248.343	0.24459
248.717	0.24634
249.091	0.24367
249.466	0.24494
249.84	0.24779
250.214	0.2493
250.588	0.25092
250.962	0.2504
251.336	0.25653
251.71	0.25975
252.084	0.2631
252.458	0.26348
252.832	0.26679
253.206	0.26941
253.58	0.26877
253.954	0.27239
254.328	0.27008
254.702	0.27178
255.075	0.2682
255.449	0.26728
255.823	0.26883
256.196	0.27166
256.57	0.27239
256.943	0.27575
257.317	0.27488
257.69	0.27391
258.064	0.27568
258.437	0.27961
258.81	0.28024
259.184	0.28388
259.557	0.28644
259.93	0.28972
260.303	0.29541
260.677	0.29676
261.05	0.29858
261.423	0.29932
261.796	0.29619
262.169	0.29896
262.542	0.30013
262.915	0.30412
263.288	0.30459
263.661	0.30297
264.033	0.30238
264.406	0.30339
264.779	0.30654
265.152	0.31136
265.524	0.31163
265.897	0.3132
266.27	0.31265
266.642	0.31416
267.015	0.31676
267.387	0.31824
267.76	0.31629
268.132	0.31372
268.504	0.31613
268.877	0.31561
269.249	0.31915
269.621	0.32073
269.994	0.32099
270.366	0.32281
270.738	0.32672
271.11	0.33246
271.482	0.338
271.854	0.34155
272.226	0.34483
272.598	0.34687
272.97	0.34867
273.342	0.34983
273.714	0.35332
274.086	0.36036
274.458	0.36518
274.829	0.36637
275.201	0.37174
275.573	0.37753
275.944	0.38708
276.316	0.3913
276.688	0.39925
277.059	0.40711
277.431	0.41645
277.802	0.42838
278.173	0.44192
278.545	0.4628
278.916	0.49069
279.287	0.5298
279.659	0.57915
280.03	0.63241
280.401	0.68887
280.772	0.7387
281.143	0.78427
281.515	0.82229
281.886	0.85215
282.257	0.87625
282.628	0.89615
282.998	0.9098
283.369	0.91916
283.74	0.92588
284.111	0.93077
284.482	0.93347
284.853	0.93404
285.223	0.93329
285.594	0.93166
285.965	0.92961
286.335	0.92612
286.706	0.92181
287.076	0.91698
287.447	0.912
287.817	0.90641
288.188	0.90064
288.558	0.89446
288.928	0.88791
289.299	0.88066
289.669	0.87322
290.039	0.86538
290.409	0.85718
290.779	0.84906
291.149	0.84081
291.52	0.83233
291.89	0.82415
292.26	0.81611
292.629	0.80807
292.999	0.80048
293.369	0.79297
293.739	0.78557
294.109	0.77859
294.479	0.77184
294.848	0.76536
295.218	0.75899
295.588	0.75286
295.957	0.74678
296.327	0.74109
296.696	0.73533
297.066	0.72957
297.435	0.72381
297.805	0.71813
298.174	0.71265
298.544	0.70705
298.913	0.70148
299.282	0.69627
299.651	0.69099
300.021	0.68556
300.39	0.68043
300.759	0.67552
301.128	0.67091
301.497	0.66644
301.866	0.66224
302.235	0.65812
302.604	0.6539
302.973	0.64979
303.342	0.64574
303.71	0.6416
304.079	0.63728
304.448	0.63284
304.817	0.6283
305.185	0.62354
305.554	0.61851
305.923	0.61333
306.291	0.60809
306.66	0.60296
307.028	0.59809
307.397	0.59294
307.765	0.58821
308.133	0.5833
308.502	0.57848
308.87	0.57345
309.238	0.56872
309.606	0.56417
309.975	0.55972
310.343	0.55541
310.711	0.55131
311.079	0.54728
311.447	0.54328
311.815	0.53957
312.183	0.53611
312.551	0.53286
312.919	0.52988
313.286	0.52732
313.654	0.52503
314.022	0.52296
314.39	0.52115
314.757	0.51916
315.125	0.51737
315.492	0.51549
315.86	0.51352
316.228	0.51122
316.595	0.509
316.962	0.50636
317.33	0.50338
317.697	0.50029
318.065	0.49699
318.432	0.49334
318.799	0.4897
319.166	0.4858
319.534	0.4817
319.901	0.4778
320.268	0.47438
320.635	0.47121
321.002	0.46795
321.369	0.4647
321.736	0.46154
322.103	0.45817
322.47	0.45482
322.836	0.45158
323.203	0.44821
323.57	0.44498
323.937	0.44181
324.303	0.43879
324.67	0.43582
325.037	0.43289
325.403	0.43027
325.77	0.42766
326.136	0.42529
326.503	0.42289
326.869	0.42064
327.235	0.4187
327.602	0.41658
327.968	0.41418
328.334	0.41161
328.7	0.40922
329.067	0.40679
329.433	0.40433
329.799	0.4019
330.165	0.39958
330.531	0.39732
330.897	0.39527
331.263	0.39342
331.629	0.39166
331.995	0.38993
332.36	0.38851
332.726	0.38714
333.092	0.38569
333.458	0.38454
333.823	0.38322
334.189	0.382
334.554	0.38086
334.92	0.37947
335.286	0.37826
335.651	0.37713
336.016	0.37608
336.382	0.37483
336.747	0.37357
337.113	0.37238
337.478	0.37129
337.843	0.37017
338.208	0.36895
338.573	0.3677
338.939	0.36646
339.304	0.36527
339.669	0.36414
340.034	0.36285
340.399	0.36181
340.764	0.36058
341.129	0.35936
341.493	0.35823
341.858	0.35708
342.223	0.35597
342.588	0.35497
342.952	0.35381
343.317	0.35268
343.682	0.35144
344.046	0.35035
344.411	0.34925
344.775	0.34804
345.14	0.34684
345.504	0.34561
345.869	0.34448
346.233	0.34317
346.597	0.3417
346.962	0.3403
347.326	0.3388
347.69	0.33732
348.054	0.3356
348.418	0.33412
348.782	0.33233
349.146	0.33069
349.51	0.32909
349.874	0.32749
350.238	0.32585
350.602	0.32429
350.966	0.32261
351.33	0.32094
351.693	0.31926
352.057	0.31772
352.421	0.31622
352.784	0.31466
353.148	0.31302
353.512	0.31143
353.875	0.30999
354.239	0.30867
354.602	0.30727
354.966	0.30575
355.329	0.30429
355.692	0.30297
356.056	0.3016
356.419	0.30044
356.782	0.29933
357.145	0.29805
357.508	0.29686
357.871	0.29555
358.234	0.29432
358.597	0.29319
358.96	0.29212
359.323	0.29093
359.686	0.28968
360.049	0.28848
360.412	0.28727
360.775	0.28621
361.137	0.28498
361.5	0.28378
361.863	0.28256
362.225	0.28138
362.588	0.28026
362.951	0.27916
363.313	0.27795
363.675	0.27674
364.038	0.27546
364.4	0.27417
364.763	0.27301
365.125	0.27182
365.487	0.27088
365.849	0.26978
366.212	0.2686
366.574	0.26755
366.936	0.26663
367.298	0.26567
367.66	0.26466
368.022	0.2638
368.384	0.26281
368.746	0.26199
369.108	0.26103
369.469	0.26016
369.831	0.25916
370.193	0.25828
370.555	0.25737
370.916	0.25638
371.278	0.25543
371.64	0.25466
372.001	0.25377
372.363	0.25285
372.724	0.252
373.086	0.25116
373.447	0.25038
373.808	0.24976
374.17	0.2489
374.531	0.24806
374.892	0.24725
375.253	0.24641
375.615	0.2457
375.976	0.24512
376.337	0.24442
376.698	0.2437
377.059	0.24299
377.42	0.24237
377.781	0.24193
378.141	0.24147
378.502	0.24114
378.863	0.2408
379.224	0.24031
379.585	0.23996
379.945	0.23961
380.306	0.23927
380.666	0.23883
381.027	0.23849
381.388	0.23801
381.748	0.2377
382.108	0.23736
382.469	0.2371
382.829	0.23692
383.19	0.23654
383.55	0.23615
383.91	0.23577
384.27	0.23561
384.63	0.23536
384.991	0.23509
385.351	0.23461
385.711	0.23429
386.071	0.23391
386.431	0.23354
386.791	0.2333
387.15	0.23309
387.51	0.23285
387.87	0.23262
388.23	0.23248
388.589	0.2323
388.949	0.23198
389.309	0.23179
389.668	0.23164
390.028	0.2314
390.387	0.23123
390.747	0.23126
391.106	0.23121
391.466	0.23138
391.825	0.23152
392.184	0.2316
392.544	0.23181
392.903	0.23208
393.262	0.23212
393.621	0.2324
393.98	0.23273
394.339	0.23292
394.698	0.23301
395.057	0.23327
395.416	0.23345
395.775	0.23368
396.134	0.23404
396.493	0.23455
396.852	0.23505
397.211	0.23543
397.569	0.23594
397.928	0.23628
398.287	0.23669
398.645	0.23707
399.004	0.23738
399.362	0.23757
399.721	0.23799
400.079	0.23831
400.438	0.23869
400.796	0.23914
401.154	0.2394
401.512	0.2397
401.871	0.24014
402.229	0.24056
402.587	0.24098
402.945	0.2415
403.303	0.24196
403.661	0.24227
404.019	0.24264
404.377	0.24299
404.735	0.24334
405.093	0.24378
405.451	0.24432
405.808	0.24468
406.166	0.24499
406.524	0.24533
406.882	0.24578
407.239	0.24608
407.597	0.24651
407.954	0.24675
408.312	0.24705
408.669	0.24749
409.027	0.24788
409.384	0.24826
409.741	0.24866
410.099	0.24901
410.456	0.24941
410.813	0.24977
411.17	0.25028
411.527	0.25081
411.884	0.25143
412.242	0.25204
412.599	0.25245
412.956	0.253
413.312	0.25347
413.669	0.25419
414.026	0.25475
414.383	0.25526
414.74	0.25581
415.096	0.25631
415.453	0.25698
415.81	0.25783
416.166	0.25843
416.523	0.25902
416.879	0.25965
417.236	0.26043
417.592	0.26095
417.949	0.26165
418.305	0.26236
418.661	0.26306
419.018	0.26372
419.374	0.26421
419.73	0.2648
420.086	0.26552
420.442	0.26601
420.798	0.26653
421.154	0.26705
421.51	0.26757
421.866	0.26802
422.222	0.2685
422.578	0.26903
422.934	0.2695
423.29	0.26976
423.646	0.27033
424.001	0.27092
424.357	0.27144
424.713	0.27188
425.068	0.2728
425.424	0.27339
425.779	0.27405
426.135	0.27459
426.49	0.27495
426.845	0.27541
427.201	0.27614
427.556	0.27658
427.911	0.27718
428.266	0.2778
428.622	0.27838
428.977	0.27904
429.332	0.27976
429.687	0.28038
430.042	0.28105
430.397	0.28174
430.752	0.28244
431.107	0.283
431.461	0.28385
431.816	0.2847
432.171	0.28544
432.526	0.28631
432.88	0.2872
433.235	0.28795
433.59	0.28856
433.944	0.28937
434.299	0.28993
434.653	0.2905
435.008	0.29112
435.362	0.29183
435.716	0.29258
436.071	0.29304
436.425	0.29383
436.779	0.29465
437.133	0.29539
437.487	0.29604
437.841	0.29666
438.195	0.2976
438.549	0.29815
438.903	0.29894
439.257	0.29974
439.611	0.30059
439.965	0.30093
440.319	0.3015
440.673	0.30224
441.026	0.30272
441.38	0.30357
441.734	0.30445
442.087	0.30507
442.441	0.30606
442.794	0.3071
443.148	0.30768
443.501	0.30884
443.855	0.30951
444.208	0.31044
444.561	0.3112
444.915	0.31234
445.268	0.31351
445.621	0.31435
445.974	0.31553
446.327	0.31663
446.68	0.31746
447.033	0.3187
447.386	0.31994
447.739	0.32103
448.092	0.32203
448.445	0.32328
448.798	0.32401
449.15	0.32517
449.503	0.32613
449.856	0.32714
450.209	0.32803
450.561	0.3291
450.914	0.33005
451.266	0.33109
451.619	0.33199
451.971	0.33305
452.323	0.33395
452.676	0.33482
453.028	0.33596
453.38	0.33675
453.733	0.33752
454.085	0.33826
454.437	0.33917
454.789	0.33998
455.141	0.34088
455.493	0.34168
455.845	0.34263
456.197	0.34363
456.549	0.34464
456.901	0.34534
457.253	0.34602
457.604	0.34703
457.956	0.34814
458.308	0.34898
458.659	0.34994
459.011	0.35064
459.362	0.35159
459.714	0.3524
460.065	0.35334
460.417	0.35386
460.768	0.35481
461.12	0.35575
461.471	0.3567
461.822	0.35709
462.173	0.35817
462.525	0.3589
462.876	0.35985
463.227	0.36053
463.578	0.36141
463.929	0.36213
464.28	0.36312
464.631	0.36401
464.982	0.365
465.332	0.36553
465.683	0.36594
466.034	0.36659
466.385	0.36743
466.735	0.36791
467.086	0.36839
467.437	0.36912
467.787	0.37017
468.138	0.37091
468.488	0.37136
468.839	0.372
469.189	0.37298
469.539	0.37361
469.89	0.37419
470.24	0.37434
470.59	0.37486
470.94	0.37538
471.29	0.37567
471.64	0.37599
471.99	0.37651
472.34	0.37648
472.69	0.37705
473.04	0.37787
473.39	0.37829
473.74	0.37876
474.09	0.37925
474.439	0.38002
474.789	0.3803
475.139	0.3805
475.488	0.38113
475.838	0.38142
476.188	0.38182
476.537	0.38199
476.886	0.38208
477.236	0.38217
477.585	0.38236
477.935	0.38262
478.284	0.38269
478.633	0.38263
478.982	0.3827
479.331	0.38298
479.68	0.38323
480.03	0.38314
480.379	0.38317
480.728	0.38327
481.076	0.38314
481.425	0.38297
481.774	0.38271
482.123	0.38271
482.472	0.38232
482.821	0.38183
483.169	0.38159
483.518	0.38109
483.866	0.38051
484.215	0.38018
484.563	0.3801
484.912	0.37975
485.26	0.37929
485.609	0.3789
485.957	0.3785
486.305	0.37814
486.654	0.3773
487.002	0.37673
487.35	0.37615
487.698	0.3753
488.046	0.37448
488.394	0.3739
488.742	0.37328
489.09	0.37252
489.438	0.37167
489.786	0.37099
490.134	0.36995
490.482	0.36894
490.829	0.36809
491.177	0.36731
491.525	0.36622
491.872	0.36514
492.22	0.36423
492.567	0.36323
492.915	0.36215
493.262	0.36115
493.61	0.35999
493.957	0.35894
494.304	0.35777
494.652	0.35669
494.999	0.35534
495.346	0.3541
495.693	0.35269
496.04	0.3516
496.387	0.35023
496.734	0.34868
497.081	0.34726
497.428	0.346
497.775	0.34471
498.122	0.34354
498.469	0.3422
498.816	0.34094
499.162	0.33958
499.509	0.33811
499.856	0.33667
500.202	0.33525
500.549	0.33386
500.895	0.33239
501.242	0.3308
501.588	0.32923
501.935	0.32748
502.281	0.32613
502.627	0.32456
502.973	0.323
503.32	0.32116
503.666	0.31958
504.012	0.31796
504.358	0.31636
504.704	0.31456
505.05	0.31295
505.396	0.31107
505.742	0.30932
506.088	0.30764
506.433	0.30597
506.779	0.30418
507.125	0.30229
507.471	0.30042
507.816	0.29862
508.162	0.29678
508.507	0.29508
508.853	0.29324
509.198	0.29167
509.544	0.28989
509.889	0.28804
510.234	0.28615
510.58	0.28441
510.925	0.28254
511.27	0.28074
511.615	0.27885
511.96	0.27722
512.306	0.27548
512.651	0.27372
512.996	0.27193
513.341	0.27
513.685	0.26819
514.03	0.26635
514.375	0.26485
514.72	0.26304
515.065	0.26123
515.409	0.25937
515.754	0.25746
516.099	0.25562
516.443	0.25361
516.788	0.25161
517.132	0.24978
517.476	0.24818
517.821	0.24633
518.165	0.2447
518.51	0.24289
518.854	0.24113
519.198	0.23942
519.542	0.23764
519.886	0.23579
520.23	0.23404
520.574	0.23231
520.918	0.23051
521.262	0.2287
521.606	0.22667
521.95	0.22509
522.294	0.22322
522.638	0.22151
522.981	0.21994
523.325	0.21812
523.669	0.21647
524.012	0.21482
524.356	0.21319
524.699	0.21127
525.043	0.20954
525.386	0.20773
525.73	0.20609
526.073	0.2043
526.416	0.20251
526.76	0.20076
527.103	0.19915
527.446	0.19741
527.789	0.19556
528.132	0.19374
528.475	0.19202
528.818	0.19048
529.161	0.18884
529.504	0.18735
529.847	0.18569
530.19	0.18399
530.532	0.18259
530.875	0.18075
531.218	0.17912
531.56	0.17747
531.903	0.17588
532.246	0.17431
532.588	0.17276
532.93	0.1713
533.273	0.16974
533.615	0.16814
533.958	0.16652
534.3	0.165
534.642	0.16351
534.984	0.16204
535.326	0.16069
535.669	0.15912
536.011	0.15755
536.353	0.15577
536.695	0.15415
537.037	0.15265
537.378	0.151
537.72	0.14944
538.062	0.14813
538.404	0.14675
538.746	0.14527
539.087	0.14392
539.429	0.14243
539.77	0.14084
540.112	0.13923
540.454	0.13786
540.795	0.13641
541.136	0.13512
541.478	0.13355
541.819	0.13208
542.16	0.13074
542.502	0.12933
542.843	0.12813
543.184	0.12666
543.525	0.12544
543.866	0.12408
544.207	0.12261
544.548	0.12141
544.889	0.12008
545.23	0.11887
545.571	0.11744
545.911	0.1162
546.252	0.11494
546.593	0.11374
546.934	0.11265
547.274	0.11138
547.615	0.11013
547.955	0.109
548.296	0.10776
548.636	0.10672
548.977	0.10554
549.317	0.1043
549.657	0.10291
549.997	0.10159
550.338	0.1005
550.678	0.09934
551.018	0.09831
551.358	0.09724
551.698	0.09616
552.038	0.09503
552.378	0.09389
552.718	0.09282
553.058	0.09175
553.398	0.09056
553.737	0.08942
554.077	0.08848
554.417	0.08742
554.756	0.08637
555.096	0.08534
555.435	0.08422
555.775	0.08313
556.114	0.08225
556.454	0.08131
556.793	0.08037
557.133	0.07954
557.472	0.07863
557.811	0.07757
558.15	0.07643
558.489	0.07555
558.829	0.07446
559.168	0.07366
559.507	0.07265
559.846	0.07164
560.184	0.07064
560.523	0.06967
560.862	0.06878
561.201	0.06777
561.54	0.06697
561.878	0.06615
562.217	0.06518
562.556	0.06427
562.894	0.06354
563.233	0.06262
563.571	0.06194
563.91	0.06111
564.248	0.0603
564.586	0.05942
564.925	0.05872
565.263	0.05817
565.601	0.0574
565.939	0.05683
566.277	0.05591
566.616	0.05524
566.954	0.05459
567.292	0.05379
567.63	0.05324
567.967	0.05257
568.305	0.05181
568.643	0.051
568.981	0.05015
569.319	0.04952
569.656	0.0488
569.994	0.04806
570.331	0.04735
570.669	0.04657
571.006	0.04598
571.344	0.04536
571.681	0.04467
572.019	0.04387
572.356	0.04312
572.693	0.04252
573.03	0.04169
573.368	0.04113
573.705	0.04052
574.042	0.03988
574.379	0.0393
574.716	0.03853
575.053	0.03789
575.39	0.03726
575.727	0.03671
576.063	0.03616
576.4	0.03547
576.737	0.03484
577.074	0.03425
577.41	0.03361
577.747	0.03297
578.083	0.03233
578.42	0.03176
578.756	0.03127
579.093	0.03089
579.429	0.03023
579.766	0.02978
580.102	0.02929
580.438	0.02867
580.774	0.02814
581.11	0.02753
581.446	0.0271
581.782	0.02668
582.119	0.02612
582.454	0.02566
582.79	0.0251
583.126	0.02458
583.462	0.02416
583.798	0.02387
584.134	0.02331
584.469	0.02287
584.805	0.0225
585.141	0.02205
585.476	0.0215
585.812	0.02105
586.147	0.02059
586.482	0.02013
586.818	0.01965
587.153	0.01927
587.488	0.01901
587.824	0.01851
588.159	0.01815
588.494	0.01751
588.829	0.01713
589.164	0.01689
589.499	0.01653
589.834	0.01611
590.169	0.01585
590.504	0.01548
590.839	0.01503
591.174	0.01482
591.508	0.01458
591.843	0.01399
592.178	0.01356
592.512	0.01321
592.847	0.01279
593.181	0.01235
593.516	0.0121
593.85	0.01167
594.185	0.01135
594.519	0.0109
594.853	0.01048
595.187	0.01013
595.522	0.00996
595.856	0.00959
596.19	0.0091
596.524	0.00857
596.858	0.00832
597.192	0.00792
597.526	0.00759
597.86	0.00722
598.194	0.00673
598.527	0.0062
598.861	0.00593
599.195	0.00551
599.528	0.00512
599.862	0.00481
600.196	0.00444
600.529	0.00393
600.863	0.00348
601.196	0.00304
601.529	0.00274
601.863	0.00246
602.196	0.00218
602.529	0.00187
602.862	0.00147
603.196	0.0012
603.529	0.001
603.862	0.0007
604.195	0.00039
604.528	0.00007
604.861	-0.00015
605.193	-0.00046
605.526	-0.00083
605.859	-0.00103
606.192	-0.00113
606.524	-0.00146
606.857	-0.00175
607.19	-0.00205
607.522	-0.00222
607.855	-0.00253
608.187	-0.00275
608.52	-0.00316
608.852	-0.00331
609.184	-0.00356
609.517	-0.00383
609.849	-0.00395
610.181	-0.00424
610.513	-0.0045
610.845	-0.0047
611.177	-0.00489
611.509	-0.00508
611.841	-0.00545
612.173	-0.0058
612.505	-0.00593
612.837	-0.00608
613.169	-0.00638
613.5	-0.00652
613.832	-0.00676
614.164	-0.00677
614.495	-0.00705
614.827	-0.00712
615.158	-0.00747
615.49	-0.00759
615.821	-0.00781
616.152	-0.00812
616.484	-0.00854
616.815	-0.00886
617.146	-0.00902
617.477	-0.00925
617.808	-0.00962
618.14	-0.00995
618.471	-0.01035
618.802	-0.0104
619.133	-0.01045
619.463	-0.0106
619.794	-0.01103
620.125	-0.01122
620.456	-0.01139
620.787	-0.01148
621.117	-0.01189
621.448	-0.01206
621.778	-0.01231
622.109	-0.01239
622.439	-0.0125
622.77	-0.01284
623.1	-0.01303
623.43	-0.01311
623.761	-0.01312
624.091	-0.01347
624.421	-0.01361
624.751	-0.01369
625.081	-0.01384
625.412	-0.01394
625.742	-0.01431
626.072	-0.01458
626.401	-0.01478
626.731	-0.01499
627.061	-0.01517
627.391	-0.01541
627.721	-0.0156
628.05	-0.01571
628.38	-0.01582
628.71	-0.01612
629.039	-0.0164
629.369	-0.01661
629.698	-0.01665
630.028	-0.01681
630.357	-0.01696
630.686	-0.01725
631.015	-0.01731
631.345	-0.01746
631.674	-0.01766
632.003	-0.01778
632.332	-0.01783
632.661	-0.01792
632.99	-0.01797
633.319	-0.01817
633.648	-0.01816
633.977	-0.01824
634.306	-0.01829
634.634	-0.01848
634.963	-0.0186
635.292	-0.01876
635.62	-0.01882
635.949	-0.01887
636.277	-0.01914
636.606	-0.01919
636.934	-0.01939
637.263	-0.0195
637.591	-0.01967
637.919	-0.01976
638.248	-0.01996
638.576	-0.02015
638.904	-0.02029
639.232	-0.02051
639.56	-0.02065
639.888	-0.0208
640.216	-0.02077
640.544	-0.02094
640.872	-0.02111
641.2	-0.02129
641.528	-0.02146
641.855	-0.0215
642.183	-0.02169
642.511	-0.02191
642.838	-0.02199
643.166	-0.02207
643.493	-0.02228
643.821	-0.02233
644.148	-0.02241
644.475	-0.02247
644.803	-0.02267
645.13	-0.02272
645.457	-0.02278
645.784	-0.02298
646.112	-0.02301
646.439	-0.0231
646.766	-0.02321
647.093	-0.0233
647.42	-0.0233
647.746	-0.02349
648.073	-0.0236
648.4	-0.02371
648.727	-0.0241
649.053	-0.0242
649.38	-0.02423
649.707	-0.02445
650.033	-0.02453
650.36	-0.02478
650.686	-0.02498
651.013	-0.02512
651.339	-0.02536
651.665	-0.02544
651.992	-0.02556
652.318	-0.02568
652.644	-0.02572
652.97	-0.02601
653.296	-0.026
653.622	-0.02616
653.948	-0.02635
654.274	-0.02647
654.6	-0.02654
654.926	-0.02661
655.252	-0.02671
655.578	-0.02667
655.903	-0.02673
656.229	-0.02671
656.555	-0.02673
656.88	-0.02674
657.206	-0.02668
657.531	-0.02664
657.857	-0.02668
658.182	-0.02666
658.507	-0.0267
658.833	-0.02689
659.158	-0.027
659.483	-0.02712
659.808	-0.02719
660.133	-0.02748
660.458	-0.02745
660.783	-0.02751
661.108	-0.02767
661.433	-0.02775
661.758	-0.0278
662.083	-0.02801
662.408	-0.02806
662.732	-0.02811
663.057	-0.02825
663.382	-0.02838
663.706	-0.02854
664.031	-0.02871
664.355	-0.02875
664.68	-0.02883
665.004	-0.02884
665.328	-0.02901
665.653	-0.02896
665.977	-0.02889
666.301	-0.02895
666.625	-0.02904
666.949	-0.029
667.273	-0.02915
667.597	-0.02922
667.921	-0.02936
668.245	-0.02941
668.569	-0.02945
668.893	-0.02942
669.217	-0.02944
669.54	-0.02954
669.864	-0.02959
670.188	-0.02958
670.511	-0.02958
670.835	-0.02964
671.158	-0.02975
671.482	-0.02979
671.805	-0.03004
672.128	-0.02999
672.452	-0.03009
672.775	-0.03033
673.098	-0.03031
673.421	-0.03039
673.744	-0.03048
674.068	-0.03056
674.391	-0.03061
674.714	-0.03053
675.036	-0.03053
675.359	-0.03073
675.682	-0.03078
676.005	-0.03092
676.328	-0.031
676.65	-0.03107
676.973	-0.03117
677.295	-0.03128
677.618	-0.03144
677.94	-0.03162
678.263	-0.03179
678.585	-0.03185
678.908	-0.03203
679.23	-0.03202
679.552	-0.03201
679.874	-0.03207
680.196	-0.03203
680.519	-0.03219
680.841	-0.03228
681.163	-0.03242
681.485	-0.03266
681.807	-0.03273
682.128	-0.03265
682.45	-0.0327
682.772	-0.03267
683.094	-0.03263
683.415	-0.03267
683.737	-0.03269
684.059	-0.03266
684.38	-0.03263
684.702	-0.03263
685.023	-0.03274
685.344	-0.03259
685.666	-0.03265
685.987	-0.03274
686.308	-0.03269
686.629	-0.03284
686.95	-0.03276
687.272	-0.03276
687.593	-0.03272
687.914	-0.03276
688.235	-0.03267
688.555	-0.03268
688.876	-0.03283
689.197	-0.03276
689.518	-0.03271
689.839	-0.03284
690.159	-0.03271
690.48	-0.03271
690.8	-0.03273
691.121	-0.03283
691.441	-0.03278
691.762	-0.03261
692.082	-0.03269
692.402	-0.03252
692.723	-0.03257
693.043	-0.03258
693.363	-0.03251
693.683	-0.03281
694.003	-0.03265
694.323	-0.03284
694.643	-0.03292
694.963	-0.03301
695.283	-0.03317
695.603	-0.03316
695.923	-0.03322
696.243	-0.03331
696.562	-0.03319
696.882	-0.03338
697.202	-0.03345
697.521	-0.0336
697.841	-0.03341
698.16	-0.03352
698.479	-0.03352
698.799	-0.03342
699.118	-0.03353
699.437	-0.03367
699.757	-0.03374
700.076	-0.03389
700.395	-0.03374
700.714	-0.034
701.033	-0.03399
701.352	-0.03397
701.671	-0.0339
701.99	-0.03384
702.308	-0.03379
702.627	-0.03388
702.946	-0.03379
703.265	-0.03388
703.583	-0.03381
703.902	-0.03386
704.22	-0.03386
704.539	-0.03398
704.857	-0.03388
705.176	-0.03401
705.494	-0.03413
705.812	-0.03424
706.131	-0.03421
706.449	-0.03422
706.767	-0.03423
707.085	-0.03415
707.403	-0.03401
707.721	-0.03393
708.039	-0.03397
708.357	-0.03395
708.675	-0.03397
708.993	-0.03407
709.31	-0.03419
709.628	-0.03451
709.946	-0.03453
710.263	-0.03468
710.581	-0.03455
710.898	-0.0345
711.216	-0.03467
711.533	-0.0347
711.851	-0.03482
712.168	-0.03487
712.485	-0.03476
712.802	-0.03484
713.12	-0.03494
713.437	-0.03493
713.754	-0.03507
714.071	-0.0351
714.388	-0.03503
714.705	-0.03511
715.022	-0.03518
715.338	-0.03515
715.655	-0.03505
715.972	-0.03494
716.289	-0.03479
716.605	-0.03491
716.922	-0.035
717.238	-0.03511
717.555	-0.0351
717.871	-0.03519
718.188	-0.03533
718.504	-0.03526
718.82	-0.03542
719.136	-0.03552
719.453	-0.0353
719.769	-0.03515
720.085	-0.03514
720.401	-0.03518
720.717	-0.03541
721.033	-0.03553
721.349	-0.03526
721.665	-0.03529
721.98	-0.03541
722.296	-0.03536
722.612	-0.03523
722.927	-0.03533
723.243	-0.03515
723.559	-0.03518
723.874	-0.0351
724.19	-0.03514
724.505	-0.0349
724.82	-0.03483
725.136	-0.0348
725.451	-0.03469
725.766	-0.0347
726.081	-0.03496
726.396	-0.03513
726.711	-0.0351
727.026	-0.035
727.341	-0.03487
727.656	-0.03492
727.971	-0.03513
728.286	-0.03508
728.601	-0.0351
728.916	-0.03516
729.23	-0.03531
729.545	-0.03523
729.859	-0.03531
730.174	-0.03516
730.488	-0.03526
730.803	-0.0353
731.117	-0.03544
731.431	-0.03547
731.746	-0.03555
732.06	-0.03545
732.374	-0.03539
732.688	-0.03542
733.002	-0.03549
733.316	-0.03565
733.63	-0.03557
733.944	-0.03558
734.258	-0.03547
734.572	-0.03535
734.886	-0.03555
735.199	-0.03551
735.513	-0.03555
735.827	-0.03543
736.14	-0.03537
736.454	-0.03539
736.767	-0.03535
737.081	-0.03536
737.394	-0.03536
737.708	-0.03523
738.021	-0.03536
738.334	-0.03535
738.647	-0.03541
738.96	-0.03535
739.273	-0.0351
739.587	-0.03502
739.9	-0.03499
740.212	-0.03511
740.525	-0.03497
740.838	-0.0349
741.151	-0.0349
741.464	-0.03472
741.776	-0.0347
742.089	-0.03463
742.402	-0.03464
742.714	-0.03462
743.027	-0.0346
743.339	-0.03461
743.651	-0.03466
743.964	-0.03456
744.276	-0.03464
744.588	-0.03433
744.901	-0.03432
745.213	-0.03422
745.525	-0.03424
745.837	-0.03431
746.149	-0.03407
746.461	-0.03399
746.773	-0.03382
747.085	-0.03374
747.396	-0.03392
747.708	-0.03408
748.02	-0.03384
748.331	-0.03385
748.643	-0.03404
748.955	-0.03409
749.266	-0.03405
749.577	-0.03391
749.889	-0.03395
750.2	-0.03395
750.512	-0.03401
750.823	-0.03391
751.134	-0.03411
751.445	-0.03409
751.756	-0.03411
752.067	-0.034
752.378	-0.03396
752.689	-0.03414
753	-0.03392
753.311	-0.0339
753.622	-0.03397
753.932	-0.03376
754.243	-0.03345
754.554	-0.03376
754.864	-0.03369
755.175	-0.03361
755.485	-0.03369
755.796	-0.03384
756.106	-0.03404
756.417	-0.03406
756.727	-0.03404
757.037	-0.03417
757.347	-0.03414
757.658	-0.03412
757.968	-0.03417
758.278	-0.03436
758.588	-0.03447
758.898	-0.03443
759.208	-0.03437
759.517	-0.03464
759.827	-0.03485
760.137	-0.03499
760.447	-0.03512
760.756	-0.03533
761.066	-0.03509
761.375	-0.03509
761.685	-0.03521
761.994	-0.03507
762.304	-0.03503
762.613	-0.03502
762.922	-0.03501
763.232	-0.03492
763.541	-0.03487
763.85	-0.0349
764.159	-0.0348
764.468	-0.03463
764.777	-0.03447
765.086	-0.0343
765.395	-0.03428
765.704	-0.0343
766.013	-0.03413
766.321	-0.03398
766.63	-0.03388
766.939	-0.03358
767.247	-0.03368
767.556	-0.03387
767.864	-0.03374
768.173	-0.03358
768.481	-0.03353
768.789	-0.03351
769.098	-0.03345
769.406	-0.03357
769.714	-0.03353
770.022	-0.03344
770.33	-0.03338
770.638	-0.03317
770.946	-0.03323
771.254	-0.03323
771.562	-0.03357
771.87	-0.03369
772.178	-0.03349
772.486	-0.03338
772.793	-0.03331
773.101	-0.03322
773.408	-0.03332
773.716	-0.0332
774.023	-0.03312
774.331	-0.03337
774.638	-0.03355
774.946	-0.03367
775.253	-0.03332
775.56	-0.03321
775.867	-0.03287
776.174	-0.03288
776.481	-0.03264
776.788	-0.03233
777.095	-0.03237
777.402	-0.0323
777.709	-0.0323
778.016	-0.03218
778.323	-0.03184
778.63	-0.03207
778.936	-0.03176
779.243	-0.03201
779.549	-0.03211
779.856	-0.03209
780.162	-0.03183
780.469	-0.03164
780.775	-0.03129
781.082	-0.03073
781.388	-0.03059
781.694	-0.03076
782	-0.03066
782.306	-0.0307
782.612	-0.03062
782.918	-0.03085
783.224	-0.03112
783.53	-0.03112
783.836	-0.0311
784.142	-0.03098
784.448	-0.03073
784.753	-0.03097
785.059	-0.03078
785.365	-0.03128
785.67	-0.0312
785.976	-0.03106
786.281	-0.03093
786.586	-0.03102
786.892	-0.03119
787.197	-0.03124
787.502	-0.03175
787.808	-0.03179
788.113	-0.03162
788.418	-0.03169
788.723	-0.03173
789.028	-0.03156
789.333	-0.03173
789.638	-0.03187
789.942	-0.03168
790.247	-0.03138
790.552	-0.03123
790.857	-0.03117
791.161	-0.03097
791.466	-0.03088
791.77	-0.03062
792.075	-0.03053
792.379	-0.03069
792.684	-0.03083
792.988	-0.03092
793.292	-0.03074
793.597	-0.03107
793.901	-0.03067
794.205	-0.03057
794.509	-0.03068
794.813	-0.03082
795.117	-0.03104
795.421	-0.03114
795.725	-0.03092
796.029	-0.03089
796.332	-0.03096
796.636	-0.03133
796.94	-0.03155
797.243	-0.03192
797.547	-0.03204
797.85	-0.03205
798.154	-0.03199
798.457	-0.03164
798.761	-0.03136
799.064	-0.03133
799.367	-0.03129
799.67	-0.03154
799.973	-0.03129
800.277	-0.03123
800.58	-0.03137
800.883	-0.03192
801.186	-0.03199
801.488	-0.03177
801.791	-0.03192
802.094	-0.03185
802.397	-0.03156
802.699	-0.03195
803.002	-0.03177
803.305	-0.03176
803.607	-0.03176
803.91	-0.03168
804.212	-0.03176
804.515	-0.03198
804.817	-0.03201
805.119	-0.03195
805.421	-0.03194
805.724	-0.03182
806.026	-0.03161
806.328	-0.03155
806.63	-0.03152
806.932	-0.03136
807.234	-0.03085
807.535	-0.03045
807.837	-0.03027
808.139	-0.03006
808.441	-0.03
808.742	-0.02983
809.044	-0.02949
809.346	-0.02931
809.647	-0.02915
809.948	-0.02838
810.25	-0.02838
810.551	-0.02864
810.853	-0.02824
811.154	-0.02808
811.455	-0.02862
811.756	-0.02864
812.057	-0.02898
812.358	-0.02925
812.659	-0.02924
812.96	-0.02974
813.261	-0.0297
813.562	-0.02994
813.863	-0.02971
814.163	-0.02935
814.464	-0.02909
814.765	-0.02917
815.065	-0.02942
815.366	-0.02942
815.666	-0.02949
815.967	-0.02965
816.267	-0.03013
816.567	-0.03032
816.868	-0.03026
817.168	-0.0305
817.468	-0.03088
817.768	-0.03002
818.068	-0.02975
818.368	-0.02943
818.668	-0.02897
818.968	-0.02892
819.268	-0.02867
819.568	-0.02854
819.867	-0.02817
820.167	-0.02831
820.467	-0.02839
820.766	-0.02833
821.066	-0.02826
821.365	-0.02792
821.665	-0.02831
821.964	-0.02842
822.263	-0.02822
822.563	-0.02815
822.862	-0.0273
823.161	-0.02697
823.46	-0.02763
823.759	-0.02757
824.058	-0.02765
824.357	-0.02745
824.656	-0.02733
824.955	-0.02726
825.254	-0.02726
825.552	-0.02683
825.851	-0.02688
826.15	-0.02731
826.448	-0.02731
826.747	-0.0272
827.045	-0.02768
827.344	-0.02762
827.642	-0.02778
827.941	-0.0271
828.239	-0.02662
828.537	-0.02666
828.835	-0.02635
829.133	-0.027
829.432	-0.02635
829.73	-0.02514
830.028	-0.02571
830.325	-0.02601
830.623	-0.02647
830.921	-0.02697
831.219	-0.02755
831.517	-0.0276
831.814	-0.02837
832.112	-0.02825
832.409	-0.02734
832.707	-0.02738
833.004	-0.02832
833.302	-0.0282
833.599	-0.02777
833.896	-0.02817
834.194	-0.02844
834.491	-0.02898
834.788	-0.02786
835.085	-0.02794
835.382	-0.02678
835.679	-0.02755
835.976	-0.02753
836.273	-0.02609
836.57	-0.02559
836.866	-0.02552
837.163	-0.02516
837.46	-0.0249
837.756	-0.02486
838.053	-0.02426
838.349	-0.02445
838.646	-0.02447
838.942	-0.02459
839.239	-0.02406
839.535	-0.0242
839.831	-0.02576
840.127	-0.02541
840.423	-0.02545
840.72	-0.02545
841.016	-0.02738
841.312	-0.02641
841.607	-0.02624
841.903	-0.02562
842.199	-0.02545
842.495	-0.02638
842.791	-0.02698
843.086	-0.02688
843.382	-0.02575
843.677	-0.0257
843.973	-0.02435
844.268	-0.02388
844.564	-0.02255
844.859	-0.02337
845.154	-0.02148
845.45	-0.01995
845.745	-0.0212
846.04	-0.01767
846.335	-0.01696
846.63	-0.016
846.925	-0.01525
847.22	-0.01297
847.515	-0.01512
847.81	-0.01676
848.104	-0.0182
848.399	-0.01845
848.694	-0.01944
848.988	-0.01961
849.283	-0.01737
849.578	-0.01864
849.872	-0.01936
850.166	-0.0211
850.461	-0.02311
850.755	-0.0244
851.049	-0.02523
851.343	-0.02679
851.638	-0.02912
851.932	-0.02534
852.226	-0.02861
852.52	-0.02752
852.814	-0.02779
853.107	-0.02719
853.401	-0.02922
853.695	-0.02522
853.989	-0.02753
854.282	-0.02688
854.576	-0.02802
854.869	-0.02281
855.163	-0.01823
855.456	-0.0231
855.75	-0.02378
856.043	-0.01966
856.336	-0.0178
856.63	-0.01158
856.923	-0.0101
857.216	-0.00876
857.509	-0.011
857.802	-0.00657
858.095	-0.00699
858.388	-0.00587
858.681	-0.00542
858.974	-0.0057
859.266	-0.00713
859.559	-0.00531
859.852	-0.00818
860.144	-0.00551
860.437	-0.00422
860.729	-0.00204
861.022	-0.00499
861.314	-0.00482
861.606	0.00023
861.899	-0.00021
862.191	-0.00205
862.483	-0.00548
862.775	-0.00936
863.067	-0.01178
863.359	-0.00968
863.651	-0.0103
863.943	-0.01046
864.235	-0.00974
864.527	-0.00912
864.819	-0.01358
865.11	-0.01092
865.402	-0.01276
865.693	-0.01278
865.985	-0.01529
866.276	-0.01237
866.568	-0.01017
866.859	-0.00592
867.151	-0.00495
867.442	-0.00841
867.733	-0.01563
868.024	-0.01197
868.315	-0.01212
868.606	-0.01448
868.897	-0.01027
869.188	-0.01093
869.479	-0.01197
869.77	-0.01186
870.061	-0.01401
870.351	-0.01611
870.642	-0.01622
870.933	-0.01394
871.223	-0.01692
871.514	-0.01523
871.804	-0.01516
872.095	-0.01296
872.385	-0.01716
872.675	-0.02078
