Data from Au dilution 20 min_Absorbance_17-42-05-634.txt Node
Date: Fri Feb 03 17:42:05 EST 2023
User: UV-vis
Spectrometer: FLMS04918
Trigger mode: 0
Integration Time (sec): 1.000000E-3
Scans to average: 10
Electric dark correction enabled: true
Nonlinearity correction enabled: false
Boxcar width: 10
XAxis mode: Wavelengths
Number of Pixels in Spectrum: 2048
>>>>>Begin Spectral Data<<<<<
179.23	-0.39635
179.611	-0.39577
179.992	-0.61501
180.373	-0.18716
180.754	-0.12402
181.134	0.02061
181.515	0.04252
181.896	0.00847
182.276	-0.35733
182.657	0.19703
183.038	-0.50556
183.418	-0.23399
183.799	0.11394
184.179	-0
184.56	0.42282
184.94	0.41758
185.32	0.44936
185.701	0.44754
186.081	0.49556
186.461	0.52535
186.842	0.49011
187.222	0.51004
187.602	0.48734
187.982	0.50369
188.362	0.51724
188.742	0.5139
189.122	0.53421
189.502	0.5416
189.882	0.56184
190.262	0.55656
190.642	0.56805
191.022	0.54643
191.402	0.54719
191.781	0.55856
192.161	0.56211
192.541	0.56138
192.92	0.56597
193.3	0.57061
193.68	0.5706
194.059	0.56393
194.439	0.56919
194.818	0.57598
195.198	0.56718
195.577	0.58741
195.957	0.57434
196.336	0.56491
196.715	0.57235
197.094	0.57371
197.474	0.56878
197.853	0.55363
198.232	0.55212
198.611	0.54782
198.99	0.55567
199.369	0.55466
199.748	0.55342
200.127	0.55402
200.506	0.55711
200.885	0.56352
201.264	0.5616
201.643	0.57309
202.022	0.59061
202.401	0.5866
202.779	0.58599
203.158	0.59172
203.537	0.58901
203.915	0.60588
204.294	0.61164
204.673	0.60951
205.051	0.60901
205.43	0.61474
205.808	0.61946
206.187	0.62975
206.565	0.63415
206.943	0.6249
207.322	0.6209
207.7	0.6159
208.078	0.63033
208.456	0.63046
208.835	0.62352
209.213	0.62142
209.591	0.6129
209.969	0.6046
210.347	0.60354
210.725	0.60047
211.103	0.60761
211.481	0.61286
211.859	0.60356
212.237	0.60563
212.614	0.60321
212.992	0.59762
213.37	0.59747
213.748	0.60801
214.125	0.60002
214.503	0.60025
214.881	0.61315
215.258	0.61842
215.636	0.62093
216.013	0.61046
216.391	0.62029
216.768	0.61767
217.145	0.62318
217.523	0.63235
217.9	0.62453
218.277	0.61442
218.655	0.62243
219.032	0.61598
219.409	0.60442
219.786	0.60103
220.163	0.60888
220.54	0.60145
220.917	0.60616
221.294	0.60177
221.671	0.59297
222.048	0.59387
222.425	0.59041
222.802	0.57497
223.179	0.57297
223.556	0.57032
223.932	0.56958
224.309	0.559
224.686	0.56492
225.062	0.56822
225.439	0.56798
225.815	0.56689
226.192	0.57075
226.568	0.56959
226.945	0.56888
227.321	0.57511
227.698	0.58555
228.074	0.58305
228.45	0.58206
228.827	0.58317
229.203	0.58305
229.579	0.57569
229.955	0.57545
230.331	0.58576
230.707	0.59965
231.083	0.60336
231.46	0.61295
231.835	0.61287
232.211	0.62997
232.587	0.63914
232.963	0.64451
233.339	0.64743
233.715	0.64866
234.091	0.65749
234.466	0.65764
234.842	0.65376
235.218	0.65671
235.593	0.6542
235.969	0.66014
236.344	0.68188
236.72	0.68822
237.095	0.68829
237.471	0.69248
237.846	0.69897
238.222	0.6897
238.597	0.68499
238.972	0.69029
239.348	0.69478
239.723	0.70305
240.098	0.69762
240.473	0.68349
240.848	0.67241
241.223	0.67274
241.598	0.6919
241.973	0.68382
242.348	0.68676
242.723	0.70045
243.098	0.70722
243.473	0.7007
243.848	0.69803
244.223	0.68379
244.597	0.67929
244.972	0.68516
245.347	0.70154
245.721	0.70505
246.096	0.71757
246.47	0.7332
246.845	0.73016
247.219	0.72469
247.594	0.71506
247.968	0.70612
248.343	0.71773
248.717	0.72279
249.091	0.71417
249.466	0.69818
249.84	0.70571
250.214	0.69464
250.588	0.68758
250.962	0.67834
251.336	0.69314
251.71	0.6885
252.084	0.69195
252.458	0.70197
252.832	0.70429
253.206	0.69776
253.58	0.69778
253.954	0.68554
254.328	0.68947
254.702	0.69152
255.075	0.69805
255.449	0.70709
255.823	0.71255
256.196	0.70626
256.57	0.71231
256.943	0.71335
257.317	0.71783
257.69	0.72857
258.064	0.73277
258.437	0.73394
258.81	0.74182
259.184	0.73549
259.557	0.73609
259.93	0.73718
260.303	0.73436
260.677	0.74118
261.05	0.75189
261.423	0.75634
261.796	0.75642
262.169	0.75311
262.542	0.75672
262.915	0.76089
263.288	0.76429
263.661	0.77225
264.033	0.77565
264.406	0.77899
264.779	0.78906
265.152	0.79524
265.524	0.79604
265.897	0.80057
266.27	0.80505
266.642	0.80544
267.015	0.81417
267.387	0.8179
267.76	0.83738
268.132	0.84219
268.504	0.83659
268.877	0.83473
269.249	0.84152
269.621	0.85639
269.994	0.86432
270.366	0.87945
270.738	0.88831
271.11	0.88982
271.482	0.89642
271.854	0.91135
272.226	0.91834
272.598	0.92754
272.97	0.94299
273.342	0.95054
273.714	0.96523
274.086	0.96582
274.458	0.98869
274.829	0.98636
275.201	0.99983
275.573	0.99702
275.944	1.00405
276.316	1.01978
276.688	1.03741
277.059	1.04762
277.431	1.06507
277.802	1.06715
278.173	1.07261
278.545	1.09836
278.916	1.14369
279.287	1.19987
279.659	1.2719
280.03	1.35467
280.401	1.4457
280.772	1.54474
281.143	1.64767
281.515	1.75106
281.886	1.84874
282.257	1.93319
282.628	2.01867
282.998	2.08841
283.369	2.14977
283.74	2.21023
284.111	2.26366
284.482	2.30302
284.853	2.33823
285.223	2.36789
285.594	2.40118
285.965	2.42697
286.335	2.44527
286.706	2.46051
287.076	2.47212
287.447	2.48485
287.817	2.4975
288.188	2.5112
288.558	2.50725
288.928	2.50944
289.299	2.5068
289.669	2.50409
290.039	2.49984
290.409	2.49653
290.779	2.4981
291.149	2.49588
291.52	2.48519
291.89	2.47874
292.26	2.47008
292.629	2.46066
292.999	2.45321
293.369	2.44469
293.739	2.43492
294.109	2.42746
294.479	2.41807
294.848	2.40962
295.218	2.40029
295.588	2.38786
295.957	2.37666
296.327	2.37138
296.696	2.36046
297.066	2.3499
297.435	2.34563
297.805	2.33896
298.174	2.33114
298.544	2.32036
298.913	2.31095
299.282	2.30071
299.651	2.28802
300.021	2.28287
300.39	2.27709
300.759	2.2691
301.128	2.26261
301.497	2.25692
301.866	2.24701
302.235	2.23976
302.604	2.23259
302.973	2.22589
303.342	2.21924
303.71	2.21148
304.079	2.20537
304.448	2.19687
304.817	2.19004
305.185	2.18343
305.554	2.17483
305.923	2.16706
306.291	2.158
306.66	2.14993
307.028	2.14376
307.397	2.13966
307.765	2.13046
308.133	2.12312
308.502	2.11664
308.87	2.10935
309.238	2.10268
309.606	2.09792
309.975	2.09201
310.343	2.08641
310.711	2.08102
311.079	2.07554
311.447	2.07047
311.815	2.06366
312.183	2.0589
312.551	2.05267
312.919	2.04534
313.286	2.03887
313.654	2.03325
314.022	2.02841
314.39	2.0233
314.757	2.02073
315.125	2.01435
315.492	2.00973
315.86	2.00437
316.228	1.99781
316.595	1.99291
316.962	1.98789
317.33	1.98205
317.697	1.97644
318.065	1.97024
318.432	1.96376
318.799	1.95801
319.166	1.95127
319.534	1.94669
319.901	1.94028
320.268	1.93604
320.635	1.92998
321.002	1.92434
321.369	1.91975
321.736	1.91563
322.103	1.91278
322.47	1.90665
322.836	1.90253
323.203	1.89804
323.57	1.89352
323.937	1.88936
324.303	1.88389
324.67	1.87867
325.037	1.87417
325.403	1.87039
325.77	1.86678
326.136	1.86285
326.503	1.85912
326.869	1.85596
327.235	1.85251
327.602	1.84981
327.968	1.84589
328.334	1.84312
328.7	1.8395
329.067	1.83497
329.433	1.83172
329.799	1.82712
330.165	1.82407
330.531	1.82034
330.897	1.81656
331.263	1.81342
331.629	1.81002
331.995	1.80715
332.36	1.80417
332.726	1.80132
333.092	1.79794
333.458	1.79483
333.823	1.79243
334.189	1.78938
334.554	1.78641
334.92	1.78236
335.286	1.77918
335.651	1.77701
336.016	1.77404
336.382	1.77239
336.747	1.77022
337.113	1.76715
337.478	1.76381
337.843	1.76051
338.208	1.75754
338.573	1.7549
338.939	1.75191
339.304	1.74964
339.669	1.74765
340.034	1.74591
340.399	1.74331
340.764	1.74129
341.129	1.73899
341.493	1.736
341.858	1.73392
342.223	1.73185
342.588	1.72987
342.952	1.72842
343.317	1.72732
343.682	1.72566
344.046	1.7232
344.411	1.72096
344.775	1.72021
345.14	1.71889
345.504	1.71773
345.869	1.71689
346.233	1.71564
346.597	1.71385
346.962	1.71263
347.326	1.71105
347.69	1.70938
348.054	1.70901
348.418	1.70791
348.782	1.70654
349.146	1.70598
349.51	1.70528
349.874	1.7037
350.238	1.70347
350.602	1.70198
350.966	1.70044
351.33	1.6992
351.693	1.69863
352.057	1.69866
352.421	1.69722
352.784	1.69653
353.148	1.6958
353.512	1.69513
353.875	1.69532
354.239	1.69462
354.602	1.69444
354.966	1.69395
355.329	1.6934
355.692	1.6923
356.056	1.69235
356.419	1.69272
356.782	1.69272
357.145	1.69208
357.508	1.69213
357.871	1.69208
358.234	1.69229
358.597	1.69211
358.96	1.69309
359.323	1.69435
359.686	1.69483
360.049	1.69481
360.412	1.69512
360.775	1.6962
361.137	1.69593
361.5	1.69664
361.863	1.69788
362.225	1.6993
362.588	1.70081
362.951	1.70206
363.313	1.70397
363.675	1.70494
364.038	1.70581
364.4	1.70703
364.763	1.709
365.125	1.71106
365.487	1.71311
365.849	1.715
366.212	1.71731
366.574	1.7192
366.936	1.72056
367.298	1.72192
367.66	1.72362
368.022	1.72666
368.384	1.72822
368.746	1.73198
369.108	1.73377
369.469	1.73675
369.831	1.73919
370.193	1.74156
370.555	1.74538
370.916	1.74705
371.278	1.7494
371.64	1.75448
372.001	1.75756
372.363	1.75944
372.724	1.76345
373.086	1.76711
373.447	1.77003
373.808	1.77371
374.17	1.77697
374.531	1.7805
374.892	1.78494
375.253	1.78843
375.615	1.79161
375.976	1.79615
376.337	1.80013
376.698	1.80418
377.059	1.80893
377.42	1.81246
377.781	1.81723
378.141	1.82089
378.502	1.82648
378.863	1.83163
379.224	1.83502
379.585	1.83946
379.945	1.84631
380.306	1.85196
380.666	1.85551
381.027	1.86206
381.388	1.8673
381.748	1.87304
382.108	1.87875
382.469	1.88389
382.829	1.89065
383.19	1.89663
383.55	1.90258
383.91	1.90828
384.27	1.91447
384.63	1.92094
384.991	1.92852
385.351	1.93427
385.711	1.94227
386.071	1.94855
386.431	1.95594
386.791	1.96224
387.15	1.96893
387.51	1.97548
387.87	1.98106
388.23	1.98844
388.589	1.99484
388.949	2.00236
389.309	2.01022
389.668	2.0186
390.028	2.02531
390.387	2.03188
390.747	2.04011
391.106	2.04826
391.466	2.05605
391.825	2.06497
392.184	2.07249
392.544	2.08009
392.903	2.08777
393.262	2.09159
393.621	2.10108
393.98	2.10929
394.339	2.11746
394.698	2.12535
395.057	2.13447
395.416	2.1437
395.775	2.1539
396.134	2.16461
396.493	2.17045
396.852	2.17799
397.211	2.18176
397.569	2.18882
397.928	2.20127
398.287	2.21099
398.645	2.21696
399.004	2.22471
399.362	2.23161
399.721	2.23973
400.079	2.24669
400.438	2.25771
400.796	2.27021
401.154	2.27598
401.512	2.28476
401.871	2.29491
402.229	2.30755
402.587	2.31841
402.945	2.32605
403.303	2.3346
403.661	2.34302
404.019	2.35342
404.377	2.36185
404.735	2.38012
405.093	2.40108
405.451	2.40983
405.808	2.41753
406.166	2.43328
406.524	2.44143
406.882	2.45632
407.239	2.46629
407.597	2.48018
407.954	2.49299
408.312	2.50179
408.669	2.51276
409.027	2.52856
409.384	2.54025
409.741	2.55852
410.099	2.56713
410.456	2.5817
410.813	2.59476
411.17	2.60261
411.527	2.60913
411.884	2.62648
412.242	2.63316
412.599	2.62795
412.956	2.6368
413.312	2.64454
413.669	2.641
414.026	2.65746
414.383	2.66007
414.74	2.66146
415.096	2.65789
415.453	2.65854
415.81	2.66541
416.166	2.66369
416.523	2.6588
416.879	2.66044
417.236	2.64811
417.592	2.64716
417.949	2.6444
418.305	2.6442
418.661	2.64049
419.018	2.64698
419.374	2.62491
419.73	2.61522
420.086	2.61593
420.442	2.60766
420.798	2.60627
421.154	2.60926
421.51	2.59917
421.866	2.58869
422.222	2.59005
422.578	2.59781
422.934	2.59031
423.29	2.57833
423.646	2.57537
424.001	2.56916
424.357	2.5641
424.713	2.5455
425.068	2.5297
425.424	2.53808
425.779	2.51324
426.135	2.4963
426.49	2.47628
426.845	2.47692
427.201	2.45607
427.556	2.43311
427.911	2.40859
428.266	2.38114
428.622	2.35967
428.977	2.34403
429.332	2.33748
429.687	2.33369
430.042	2.32006
430.397	2.30778
430.752	2.29157
431.107	2.28887
431.461	2.27723
431.816	2.2597
432.171	2.26711
432.526	2.27867
432.88	2.2573
433.235	2.25674
433.59	2.2706
433.944	2.25615
434.299	2.2541
434.653	2.2565
435.008	2.25285
435.362	2.25255
435.716	2.25987
436.071	2.26503
436.425	2.27456
436.779	2.27271
437.133	2.25696
437.487	2.23811
437.841	2.22688
438.195	2.23109
438.549	2.22182
438.903	2.22073
439.257	2.2281
439.611	2.21489
439.965	2.18484
440.319	2.17256
440.673	2.1499
441.026	2.12916
441.38	2.13812
441.734	2.12245
442.087	2.12303
442.441	2.12624
442.794	2.12525
443.148	2.11777
443.501	2.11623
443.855	2.10607
444.208	2.09649
444.561	2.09412
444.915	2.08866
445.268	2.08424
445.621	2.08109
445.974	2.0868
446.327	2.08253
446.68	2.06776
447.033	2.05857
447.386	2.07556
447.739	2.0806
448.092	2.09962
448.445	2.08618
448.798	2.08037
449.15	2.07951
449.503	2.08119
449.856	2.07857
450.209	2.07329
450.561	2.06732
450.914	2.05558
451.266	2.04666
451.619	2.03584
451.971	2.0241
452.323	2.03032
452.676	2.02915
453.028	2.02871
453.38	2.01939
453.733	2.00976
454.085	2.00482
454.437	1.99586
454.789	1.98447
455.141	1.97008
455.493	1.95098
455.845	1.94765
456.197	1.94229
456.549	1.93392
456.901	1.91443
457.253	1.90774
457.604	1.90805
457.956	1.90625
458.308	1.8984
458.659	1.88944
459.011	1.8878
459.362	1.8821
459.714	1.87407
460.065	1.86355
460.417	1.85204
460.768	1.83744
461.12	1.83109
461.471	1.82425
461.822	1.82464
462.173	1.81346
462.525	1.8081
462.876	1.80369
463.227	1.79915
463.578	1.79293
463.929	1.78911
464.28	1.78692
464.631	1.77894
464.982	1.77091
465.332	1.76108
465.683	1.75358
466.034	1.74668
466.385	1.73695
466.735	1.72728
467.086	1.71819
467.437	1.71604
467.787	1.70991
468.138	1.70728
468.488	1.70412
468.839	1.69911
469.189	1.69372
469.539	1.69077
469.89	1.68212
470.24	1.67819
470.59	1.66989
470.94	1.66249
471.29	1.659
471.64	1.6499
471.99	1.64406
472.34	1.63164
472.69	1.62733
473.04	1.61995
473.39	1.61572
473.74	1.61284
474.09	1.61094
474.439	1.60592
474.789	1.59969
475.139	1.59494
475.488	1.59093
475.838	1.58466
476.188	1.579
476.537	1.57352
476.886	1.5662
477.236	1.56119
477.585	1.55547
477.935	1.55088
478.284	1.54404
478.633	1.53535
478.982	1.53021
479.331	1.52407
479.68	1.52186
480.03	1.51513
480.379	1.51361
480.728	1.50868
481.076	1.50345
481.425	1.4989
481.774	1.49281
482.123	1.48594
482.472	1.48142
482.821	1.47784
483.169	1.47229
483.518	1.46604
483.866	1.45983
484.215	1.45462
484.563	1.44941
484.912	1.44406
485.26	1.43938
485.609	1.43601
485.957	1.43165
486.305	1.42729
486.654	1.42245
487.002	1.41865
487.35	1.41318
487.698	1.40776
488.046	1.40283
488.394	1.39507
488.742	1.38808
489.09	1.38195
489.438	1.37628
489.786	1.36868
490.134	1.3608
490.482	1.35411
490.829	1.34838
491.177	1.34192
491.525	1.33688
491.872	1.3314
492.22	1.32527
492.567	1.31933
492.915	1.31184
493.262	1.30578
493.61	1.30031
493.957	1.29394
494.304	1.28717
494.652	1.28081
494.999	1.27541
495.346	1.26873
495.693	1.26529
496.04	1.26089
496.387	1.25726
496.734	1.25303
497.081	1.24876
497.428	1.24423
497.775	1.23997
498.122	1.23618
498.469	1.23225
498.816	1.22732
499.162	1.2228
499.509	1.21824
499.856	1.21329
500.202	1.2093
500.549	1.20529
500.895	1.19995
501.242	1.19636
501.588	1.1921
501.935	1.18775
502.281	1.18368
502.627	1.18013
502.973	1.17623
503.32	1.17197
503.666	1.1661
504.012	1.16127
504.358	1.15661
504.704	1.15288
505.05	1.14854
505.396	1.14336
505.742	1.13953
506.088	1.13583
506.433	1.13251
506.779	1.12894
507.125	1.12504
507.471	1.12147
507.816	1.11749
508.162	1.11502
508.507	1.11149
508.853	1.1072
509.198	1.10434
509.544	1.10005
509.889	1.09616
510.234	1.09252
510.58	1.08855
510.925	1.08641
511.27	1.08359
511.615	1.07995
511.96	1.07619
512.306	1.07289
512.651	1.06933
512.996	1.06601
513.341	1.06221
513.685	1.05826
514.03	1.05405
514.375	1.05084
514.72	1.0473
515.065	1.04407
515.409	1.03977
515.754	1.03642
516.099	1.03362
516.443	1.03031
516.788	1.0271
517.132	1.02398
517.476	1.02064
517.821	1.0176
518.165	1.01387
518.51	1.01071
518.854	1.00772
519.198	1.00455
519.542	1.00111
519.886	0.9988
520.23	0.99522
520.574	0.99183
520.918	0.9885
521.262	0.98552
521.606	0.98252
521.95	0.97921
522.294	0.97574
522.638	0.97307
522.981	0.9695
523.325	0.96589
523.669	0.9625
524.012	0.95936
524.356	0.95613
524.699	0.95281
525.043	0.94931
525.386	0.94602
525.73	0.94276
526.073	0.9399
526.416	0.93632
526.76	0.93305
527.103	0.92942
527.446	0.92596
527.789	0.92302
528.132	0.92014
528.475	0.91675
528.818	0.91334
529.161	0.91009
529.504	0.90685
529.847	0.90343
530.19	0.90005
530.532	0.89695
530.875	0.89374
531.218	0.89011
531.56	0.88665
531.903	0.88297
532.246	0.87948
532.588	0.87605
532.93	0.87246
533.273	0.8687
533.615	0.8654
533.958	0.8619
534.3	0.858
534.642	0.85463
534.984	0.85105
535.326	0.84719
535.669	0.84384
536.011	0.84022
536.353	0.83649
536.695	0.83251
537.037	0.82892
537.378	0.82551
537.72	0.82188
538.062	0.81812
538.404	0.8147
538.746	0.81091
539.087	0.8075
539.429	0.80376
539.77	0.80019
540.112	0.79635
540.454	0.79304
540.795	0.78951
541.136	0.78588
541.478	0.78255
541.819	0.77935
542.16	0.7761
542.502	0.77264
542.843	0.76927
543.184	0.76628
543.525	0.76297
543.866	0.75976
544.207	0.7564
544.548	0.75262
544.889	0.74919
545.23	0.74571
545.571	0.74224
545.911	0.73892
546.252	0.73531
546.593	0.73194
546.934	0.72851
547.274	0.72521
547.615	0.72153
547.955	0.71824
548.296	0.71489
548.636	0.71159
548.977	0.70787
549.317	0.7044
549.657	0.70159
549.997	0.69807
550.338	0.69444
550.678	0.69095
551.018	0.68798
551.358	0.68462
551.698	0.68172
552.038	0.67863
552.378	0.67547
552.718	0.67215
553.058	0.6692
553.398	0.66639
553.737	0.66358
554.077	0.66063
554.417	0.65781
554.756	0.65498
555.096	0.6519
555.435	0.64901
555.775	0.64639
556.114	0.64354
556.454	0.64042
556.793	0.63716
557.133	0.63444
557.472	0.63139
557.811	0.62873
558.15	0.62547
558.489	0.62272
558.829	0.61994
559.168	0.61705
559.507	0.61466
559.846	0.61226
560.184	0.60955
560.523	0.60689
560.862	0.60448
561.201	0.60159
561.54	0.59922
561.878	0.5964
562.217	0.59391
562.556	0.59118
562.894	0.58833
563.233	0.58588
563.571	0.58334
563.91	0.58067
564.248	0.57819
564.586	0.57599
564.925	0.57369
565.263	0.57134
565.601	0.56895
565.939	0.56648
566.277	0.56403
566.616	0.56155
566.954	0.55912
567.292	0.55691
567.63	0.55446
567.967	0.55192
568.305	0.5498
568.643	0.54746
568.981	0.54532
569.319	0.54294
569.656	0.54086
569.994	0.53867
570.331	0.53662
570.669	0.53426
571.006	0.53215
571.344	0.5298
571.681	0.5273
572.019	0.52522
572.356	0.52313
572.693	0.52097
573.03	0.51882
573.368	0.51677
573.705	0.51475
574.042	0.51265
574.379	0.51034
574.716	0.50831
575.053	0.50648
575.39	0.50458
575.727	0.50238
576.063	0.50037
576.4	0.49882
576.737	0.49666
577.074	0.49489
577.41	0.49286
577.747	0.49114
578.083	0.48933
578.42	0.48754
578.756	0.48578
579.093	0.48389
579.429	0.48214
579.766	0.48016
580.102	0.4784
580.438	0.47641
580.774	0.47423
581.11	0.47222
581.446	0.47029
581.782	0.46855
582.119	0.46661
582.454	0.46462
582.79	0.46278
583.126	0.46106
583.462	0.45905
583.798	0.45736
584.134	0.45529
584.469	0.45368
584.805	0.45196
585.141	0.45022
585.476	0.44848
585.812	0.44685
586.147	0.44504
586.482	0.44314
586.818	0.44159
587.153	0.43981
587.488	0.43839
587.824	0.43702
588.159	0.43535
588.494	0.43391
588.829	0.43226
589.164	0.43077
589.499	0.42927
589.834	0.4276
590.169	0.42589
590.504	0.42408
590.839	0.42262
591.174	0.42134
591.508	0.41965
591.843	0.41827
592.178	0.41671
592.512	0.41516
592.847	0.41384
593.181	0.41223
593.516	0.41102
593.85	0.40962
594.185	0.40815
594.519	0.40657
594.853	0.40494
595.187	0.40378
595.522	0.40226
595.856	0.40081
596.19	0.39906
596.524	0.39766
596.858	0.3964
597.192	0.39516
597.526	0.39395
597.86	0.39252
598.194	0.39101
598.527	0.38977
598.861	0.38824
599.195	0.38693
599.528	0.3856
599.862	0.38398
600.196	0.3827
600.529	0.3813
600.863	0.37974
601.196	0.37836
601.529	0.37711
601.863	0.37601
602.196	0.37456
602.529	0.37333
602.862	0.37184
603.196	0.37071
603.529	0.36942
603.862	0.36825
604.195	0.36693
604.528	0.36568
604.861	0.36461
605.193	0.36333
605.526	0.362
605.859	0.36053
606.192	0.35929
606.524	0.35822
606.857	0.35723
607.19	0.35615
607.522	0.35512
607.855	0.35422
608.187	0.35327
608.52	0.35222
608.852	0.35089
609.184	0.34979
609.517	0.34862
609.849	0.3479
610.181	0.3469
610.513	0.34568
610.845	0.34445
611.177	0.34341
611.509	0.34217
611.841	0.34109
612.173	0.34022
612.505	0.33908
612.837	0.33832
613.169	0.33722
613.5	0.33604
613.832	0.33484
614.164	0.33377
614.495	0.33253
614.827	0.33154
615.158	0.33051
615.49	0.32959
615.821	0.32863
616.152	0.32775
616.484	0.32693
616.815	0.3258
617.146	0.3248
617.477	0.32391
617.808	0.32315
618.14	0.32216
618.471	0.32129
618.802	0.32031
619.133	0.3192
619.463	0.31832
619.794	0.31732
620.125	0.31639
620.456	0.31556
620.787	0.31478
621.117	0.3138
621.448	0.31295
621.778	0.31201
622.109	0.31092
622.439	0.30996
622.77	0.30914
623.1	0.30827
623.43	0.30734
623.761	0.30635
624.091	0.30545
624.421	0.3046
624.751	0.30361
625.081	0.30273
625.412	0.30191
625.742	0.30083
626.072	0.30006
626.401	0.29904
626.731	0.29814
627.061	0.29737
627.391	0.29669
627.721	0.29565
628.05	0.29489
628.38	0.29413
628.71	0.29312
629.039	0.29254
629.369	0.29165
629.698	0.29085
630.028	0.28988
630.357	0.28913
630.686	0.28843
631.015	0.28767
631.345	0.28685
631.674	0.28599
632.003	0.28536
632.332	0.28457
632.661	0.28396
632.99	0.28335
633.319	0.28277
633.648	0.28224
633.977	0.28133
634.306	0.2804
634.634	0.27972
634.963	0.27886
635.292	0.27806
635.62	0.2775
635.949	0.2765
636.277	0.2759
636.606	0.27529
636.934	0.27463
637.263	0.27376
637.591	0.27313
637.919	0.27231
638.248	0.27159
638.576	0.27093
638.904	0.26996
639.232	0.26921
639.56	0.26849
639.888	0.26764
640.216	0.26702
640.544	0.26616
640.872	0.26562
641.2	0.265
641.528	0.26436
641.855	0.26369
642.183	0.26287
642.511	0.26234
642.838	0.2618
643.166	0.26099
643.493	0.26015
643.821	0.25949
644.148	0.25906
644.475	0.25832
644.803	0.25773
645.13	0.25729
645.457	0.25674
645.784	0.25634
646.112	0.25579
646.439	0.25537
646.766	0.25476
647.093	0.25396
647.42	0.25346
647.746	0.25282
648.073	0.25223
648.4	0.25166
648.727	0.25106
649.053	0.25066
649.38	0.24976
649.707	0.24916
650.033	0.24863
650.36	0.24799
650.686	0.24754
651.013	0.24695
651.339	0.24624
651.665	0.24569
651.992	0.24508
652.318	0.24452
652.644	0.24393
652.97	0.24334
653.296	0.24265
653.622	0.24208
653.948	0.24154
654.274	0.24088
654.6	0.24036
654.926	0.23965
655.252	0.23914
655.578	0.23872
655.903	0.23821
656.229	0.23784
656.555	0.23728
656.88	0.23668
657.206	0.23614
657.531	0.23549
657.857	0.23496
658.182	0.23457
658.507	0.23398
658.833	0.23325
659.158	0.23267
659.483	0.23192
659.808	0.23147
660.133	0.2308
660.458	0.23029
660.783	0.22989
661.108	0.22953
661.433	0.22908
661.758	0.22876
662.083	0.22823
662.408	0.22781
662.732	0.22748
663.057	0.2269
663.382	0.22644
663.706	0.2262
664.031	0.22589
664.355	0.22539
664.68	0.22476
665.004	0.22444
665.328	0.22415
665.653	0.22372
665.977	0.22325
666.301	0.22298
666.625	0.22236
666.949	0.22196
667.273	0.22156
667.597	0.22105
667.921	0.22061
668.245	0.2202
668.569	0.2197
668.893	0.21921
669.217	0.21862
669.54	0.21793
669.864	0.21748
670.188	0.21698
670.511	0.21631
670.835	0.21585
671.158	0.21532
671.482	0.21487
671.805	0.21427
672.128	0.21356
672.452	0.21322
672.775	0.21265
673.098	0.2122
673.421	0.21195
673.744	0.21156
674.068	0.21097
674.391	0.21064
674.714	0.21013
675.036	0.20962
675.359	0.20906
675.682	0.20859
676.005	0.20818
676.328	0.20772
676.65	0.2073
676.973	0.20721
677.295	0.20665
677.618	0.20613
677.94	0.20593
678.263	0.20539
678.585	0.20506
678.908	0.20481
679.23	0.20432
679.552	0.20417
679.874	0.20379
680.196	0.20326
680.519	0.20292
680.841	0.20261
681.163	0.20205
681.485	0.20181
681.807	0.20148
682.128	0.20139
682.45	0.20121
682.772	0.20084
683.094	0.20061
683.415	0.20017
683.737	0.19976
684.059	0.19937
684.38	0.19899
684.702	0.19844
685.023	0.19845
685.344	0.19817
685.666	0.19797
685.987	0.19753
686.308	0.19697
686.629	0.19643
686.95	0.19619
687.272	0.19573
687.593	0.19544
687.914	0.19504
688.235	0.19455
688.555	0.19418
688.876	0.19367
689.197	0.19313
689.518	0.19287
689.839	0.19238
690.159	0.1921
690.48	0.19166
690.8	0.19151
691.121	0.19137
691.441	0.19115
691.762	0.19073
692.082	0.19015
692.402	0.18972
692.723	0.18955
693.043	0.18927
693.363	0.18898
693.683	0.18862
694.003	0.18813
694.323	0.18779
694.643	0.18753
694.963	0.18711
695.283	0.18685
695.603	0.18656
695.923	0.18624
696.243	0.18596
696.562	0.18567
696.882	0.18533
697.202	0.18475
697.521	0.18443
697.841	0.18391
698.16	0.1835
698.479	0.18302
698.799	0.18276
699.118	0.18244
699.437	0.182
699.757	0.18138
700.076	0.18094
700.395	0.18048
700.714	0.18044
701.033	0.18023
701.352	0.1799
701.671	0.17973
701.99	0.17937
702.308	0.17883
702.627	0.1785
702.946	0.17804
703.265	0.1778
703.583	0.17756
703.902	0.17766
704.22	0.1772
704.539	0.17692
704.857	0.1766
705.176	0.17645
705.494	0.1761
705.812	0.17568
706.131	0.17531
706.449	0.17521
706.767	0.17523
707.085	0.1751
707.403	0.17461
707.721	0.17412
708.039	0.17404
708.357	0.17358
708.675	0.17342
708.993	0.17328
709.31	0.17311
709.628	0.17285
709.946	0.17247
710.263	0.17202
710.581	0.17147
710.898	0.17116
711.216	0.1708
711.533	0.17054
711.851	0.17006
712.168	0.16988
712.485	0.16963
712.802	0.16946
713.12	0.16928
713.437	0.16895
713.754	0.16864
714.071	0.1686
714.388	0.16837
714.705	0.16773
715.022	0.16746
715.338	0.16678
715.655	0.16646
715.972	0.16631
716.289	0.16602
716.605	0.16588
716.922	0.1657
717.238	0.16543
717.555	0.16524
717.871	0.16509
718.188	0.16472
718.504	0.16446
718.82	0.16418
719.136	0.16393
719.453	0.16373
719.769	0.16328
720.085	0.16301
720.401	0.16264
720.717	0.16227
721.033	0.16198
721.349	0.16186
721.665	0.16152
721.98	0.16136
722.296	0.161
722.612	0.16051
722.927	0.16037
723.243	0.15985
723.559	0.15962
723.874	0.15937
724.19	0.15942
724.505	0.1593
724.82	0.15914
725.136	0.1588
725.451	0.1585
725.766	0.15818
726.081	0.15764
726.396	0.15743
726.711	0.15696
727.026	0.15672
727.341	0.15618
727.656	0.15576
727.971	0.15542
728.286	0.15533
728.601	0.15514
728.916	0.15488
729.23	0.15444
729.545	0.15386
729.859	0.15352
730.174	0.15281
730.488	0.15246
730.803	0.15194
731.117	0.15149
731.431	0.15108
731.746	0.15101
732.06	0.15061
732.374	0.15036
732.688	0.15032
733.002	0.15018
733.316	0.14993
733.63	0.14967
733.944	0.14954
734.258	0.14941
734.572	0.1492
734.886	0.14885
735.199	0.14842
735.513	0.1483
735.827	0.14802
736.14	0.14799
736.454	0.14794
736.767	0.14818
737.081	0.14792
737.394	0.14764
737.708	0.14734
738.021	0.14712
738.334	0.14662
738.647	0.14649
738.96	0.14628
739.273	0.14609
739.587	0.14552
739.9	0.14522
740.212	0.14489
740.525	0.14464
740.838	0.14434
741.151	0.14402
741.464	0.14369
741.776	0.14376
742.089	0.14354
742.402	0.14365
742.714	0.1432
743.027	0.1428
743.339	0.14258
743.651	0.14245
743.964	0.14209
744.276	0.1419
744.588	0.14203
744.901	0.14183
745.213	0.14149
745.525	0.14116
745.837	0.14087
746.149	0.1411
746.461	0.14109
746.773	0.1407
747.085	0.1405
747.396	0.14033
747.708	0.14035
748.02	0.14021
748.331	0.13985
748.643	0.13939
748.955	0.13873
749.266	0.13866
749.577	0.1386
749.889	0.13822
750.2	0.13795
750.512	0.13767
750.823	0.13731
751.134	0.13674
751.445	0.13667
751.756	0.13657
752.067	0.13641
752.378	0.13615
752.689	0.13569
753	0.13549
753.311	0.13546
753.622	0.13489
753.932	0.13484
754.243	0.13438
754.554	0.13419
754.864	0.13375
755.175	0.1336
755.485	0.13347
755.796	0.13353
756.106	0.13326
756.417	0.13308
756.727	0.13304
757.037	0.13312
757.347	0.13324
757.658	0.13328
757.968	0.13297
758.278	0.13275
758.588	0.13271
758.898	0.13234
759.208	0.13236
759.517	0.13199
759.827	0.13194
760.137	0.13233
760.447	0.13219
760.756	0.13207
761.066	0.13194
761.375	0.13201
761.685	0.13218
761.994	0.13198
762.304	0.13138
762.613	0.13141
762.922	0.13135
763.232	0.13108
763.541	0.13094
763.85	0.13069
764.159	0.13052
764.468	0.13063
764.777	0.1306
765.086	0.13045
765.395	0.13084
765.704	0.13066
766.013	0.13086
766.321	0.13066
766.63	0.13032
766.939	0.13017
767.247	0.13019
767.556	0.12986
767.864	0.12997
768.173	0.13005
768.481	0.13002
768.789	0.13002
769.098	0.12981
769.406	0.12954
769.714	0.12945
770.022	0.12942
770.33	0.12912
770.638	0.12877
770.946	0.12838
771.254	0.12805
771.562	0.12805
771.87	0.12738
772.178	0.1271
772.486	0.12672
772.793	0.12668
773.101	0.12675
773.408	0.12621
773.716	0.12586
774.023	0.12596
774.331	0.12549
774.638	0.12509
774.946	0.12511
775.253	0.12526
775.56	0.12485
775.867	0.12433
776.174	0.12421
776.481	0.12354
776.788	0.12332
777.095	0.12293
777.402	0.12271
777.709	0.12276
778.016	0.12243
778.323	0.12229
778.63	0.12211
778.936	0.12192
779.243	0.12158
779.549	0.12103
779.856	0.12109
780.162	0.12073
780.469	0.12046
780.775	0.12012
781.082	0.11929
781.388	0.11915
781.694	0.11846
782	0.11835
782.306	0.11872
782.612	0.11849
782.918	0.1184
783.224	0.118
783.53	0.11786
783.836	0.11781
784.142	0.11748
784.448	0.11704
784.753	0.11713
785.059	0.11696
785.365	0.11663
785.67	0.11646
785.976	0.11633
786.281	0.11602
786.586	0.11617
786.892	0.1159
787.197	0.11549
787.502	0.11577
787.808	0.11541
788.113	0.11579
788.418	0.11581
788.723	0.11548
789.028	0.11482
789.333	0.11484
789.638	0.11507
789.942	0.11529
790.247	0.11491
790.552	0.11483
790.857	0.11459
791.161	0.1141
791.466	0.11407
791.77	0.11376
792.075	0.11354
792.379	0.11356
792.684	0.11333
792.988	0.11336
793.292	0.11304
793.597	0.11333
793.901	0.11335
794.205	0.11322
794.509	0.11234
794.813	0.1122
795.117	0.11211
795.421	0.11234
795.725	0.11193
796.029	0.11141
796.332	0.11134
796.636	0.11136
796.94	0.11098
797.243	0.11094
797.547	0.11094
797.85	0.1107
798.154	0.11096
798.457	0.11099
798.761	0.11074
799.064	0.11107
799.367	0.11075
799.67	0.11088
799.973	0.11063
800.277	0.11039
800.58	0.11036
800.883	0.11048
801.186	0.11001
801.488	0.10956
801.791	0.10945
802.094	0.10949
802.397	0.10947
802.699	0.10964
803.002	0.10916
803.305	0.10898
803.607	0.10898
803.91	0.10889
804.212	0.1085
804.515	0.1082
804.817	0.10792
805.119	0.10768
805.421	0.10771
805.724	0.10734
806.026	0.10682
806.328	0.10675
806.63	0.10674
806.932	0.10653
807.234	0.10652
807.535	0.10578
807.837	0.10601
808.139	0.10547
808.441	0.10506
808.742	0.10516
809.044	0.10419
809.346	0.10448
809.647	0.10413
809.948	0.10431
810.25	0.10404
810.551	0.1047
810.853	0.10476
811.154	0.10424
811.455	0.10434
811.756	0.10336
812.057	0.10353
812.358	0.10342
812.659	0.10332
812.96	0.10306
813.261	0.1031
813.562	0.10284
813.863	0.10299
814.163	0.10288
814.464	0.1026
814.765	0.10314
815.065	0.10287
815.366	0.10255
815.666	0.10212
815.967	0.10187
816.267	0.1015
816.567	0.10135
816.868	0.10056
817.168	0.09997
817.468	0.09974
817.768	0.0994
818.068	0.09994
818.368	0.1
818.668	0.1002
818.968	0.09978
819.268	0.09915
819.568	0.09873
819.867	0.09865
820.167	0.09927
820.467	0.09926
820.766	0.09923
821.066	0.0984
821.365	0.09855
821.665	0.0989
821.964	0.09966
822.263	0.10006
822.563	0.10032
822.862	0.10055
823.161	0.10099
823.46	0.10048
823.759	0.10137
824.058	0.10134
824.357	0.10079
824.656	0.1006
824.955	0.10056
825.254	0.10107
825.552	0.1012
825.851	0.10128
826.15	0.10184
826.448	0.10135
826.747	0.10041
827.045	0.10118
827.344	0.10155
827.642	0.1018
827.941	0.10206
828.239	0.10107
828.537	0.10026
828.835	0.09958
829.133	0.09958
829.432	0.09891
829.73	0.10021
830.028	0.10007
830.325	0.09965
830.623	0.09872
830.921	0.0974
831.219	0.09741
831.517	0.09673
831.814	0.09624
832.112	0.09628
832.409	0.096
832.707	0.0966
833.004	0.09737
833.302	0.09811
833.599	0.09872
833.896	0.09891
834.194	0.09957
834.491	0.09938
834.788	0.10021
835.085	0.10053
835.382	0.1007
835.679	0.10081
835.976	0.10074
836.273	0.10189
836.57	0.10307
836.866	0.10443
837.163	0.10562
837.46	0.105
837.756	0.10408
838.053	0.10645
838.349	0.10727
838.646	0.10738
838.942	0.10834
839.239	0.10907
839.535	0.10786
839.831	0.10715
840.127	0.10763
840.423	0.10654
840.72	0.10864
841.016	0.10991
841.312	0.11027
841.607	0.11054
841.903	0.11155
842.199	0.11097
842.495	0.10885
842.791	0.10781
843.086	0.10955
843.382	0.10937
843.677	0.1146
843.973	0.11659
844.268	0.1129
844.564	0.11155
844.859	0.11185
845.154	0.11078
845.45	0.10993
845.745	0.11203
846.04	0.11426
846.335	0.11214
846.63	0.11414
846.925	0.1123
847.22	0.11273
847.515	0.11432
847.81	0.11377
848.104	0.11637
848.399	0.11981
848.694	0.12335
848.988	0.12702
849.283	0.1249
849.578	0.1282
849.872	0.12559
850.166	0.12893
850.461	0.13888
850.755	0.14083
851.049	0.1407
851.343	0.14532
851.638	0.14872
851.932	0.14983
852.226	0.14847
852.52	0.14677
852.814	0.14928
853.107	0.15655
853.401	0.1582
853.695	0.1637
853.989	0.16498
854.282	0.16415
854.576	0.16378
854.869	0.16231
855.163	0.16121
855.456	0.17246
855.75	0.17822
856.043	0.17104
856.336	0.1749
856.63	0.16936
856.923	0.17641
857.216	0.18184
857.509	0.18148
857.802	0.18244
858.095	0.18507
858.388	0.18247
858.681	0.19389
858.974	0.1963
859.266	0.19158
859.559	0.19815
859.852	0.18677
860.144	0.19072
860.437	0.19058
860.729	0.19495
861.022	0.19954
861.314	0.19845
861.606	0.18689
861.899	0.18281
862.191	0.19351
862.483	0.19073
862.775	0.20023
863.067	0.19153
863.359	0.19305
863.651	0.19667
863.943	0.18708
864.235	0.18455
864.527	0.19151
864.819	0.19473
865.11	0.18445
865.402	0.18872
865.693	0.18695
865.985	0.186
866.276	0.18201
866.568	0.19246
866.859	0.18163
867.151	0.17671
867.442	0.18302
867.733	0.18418
868.024	0.184
868.315	0.19107
868.606	0.19269
868.897	0.18381
869.188	0.20184
869.479	0.21212
869.77	0.22042
870.061	0.23155
870.351	0.23455
870.642	0.23757
870.933	0.23486
871.223	0.24602
871.514	0.24463
871.804	0.24121
872.095	0.25411
872.385	0.27106
872.675	0.25644
