Data from initial mio_Absorbance_03.txt Node
Date: Thu Jan 12 12:14:12 EST 2023
User: UV-vis
Spectrometer: FLMS04918
Trigger mode: 0
Integration Time (sec): 2.340000E-3
Scans to average: 100
Electric dark correction enabled: true
Nonlinearity correction enabled: false
Boxcar width: 10
XAxis mode: Wavelengths
Number of Pixels in Spectrum: 2048
>>>>>Begin Spectral Data<<<<<
179.23	-0
179.611	-0
179.992	-0
180.373	-0
180.754	-0
181.134	-0
181.515	-0
181.896	-0
182.276	-0
182.657	-0
183.038	-0
183.418	-0
183.799	-0
184.179	0.0874
184.56	0.05081
184.94	0.04082
185.32	0.04567
185.701	0.04469
186.081	0.04624
186.461	0.04517
186.842	0.04425
187.222	0.04181
187.602	0.04055
187.982	0.0399
188.362	0.04135
188.742	0.03995
189.122	0.03941
189.502	0.03988
189.882	0.04079
190.262	0.04074
190.642	0.04148
191.022	0.04033
191.402	0.0401
191.781	0.04058
192.161	0.04012
192.541	0.04045
192.92	0.04058
193.3	0.04009
193.68	0.04032
194.059	0.04025
194.439	0.04038
194.818	0.04048
195.198	0.04061
195.577	0.0406
195.957	0.04126
196.336	0.04058
196.715	0.04159
197.094	0.04194
197.474	0.04231
197.853	0.042
198.232	0.04194
198.611	0.04162
198.99	0.04281
199.369	0.04282
199.748	0.04195
200.127	0.04265
200.506	0.04238
200.885	0.0425
201.264	0.04288
201.643	0.04282
202.022	0.04203
202.401	0.04219
202.779	0.04254
203.158	0.04324
203.537	0.04274
203.915	0.04231
204.294	0.04197
204.673	0.04118
205.051	0.041
205.43	0.0404
205.808	0.04052
206.187	0.04018
206.565	0.03984
206.943	0.03968
207.322	0.03938
207.7	0.04018
208.078	0.04002
208.456	0.0402
208.835	0.04012
209.213	0.03991
209.591	0.0398
209.969	0.04064
210.347	0.04056
210.725	0.04033
211.103	0.04034
211.481	0.04147
211.859	0.04157
212.237	0.04194
212.614	0.04218
212.992	0.04178
213.37	0.0418
213.748	0.04258
214.125	0.04333
214.503	0.04382
214.881	0.0437
215.258	0.04488
215.636	0.04493
216.013	0.04484
216.391	0.04475
216.768	0.04524
217.145	0.04487
217.523	0.04509
217.9	0.04434
218.277	0.04387
218.655	0.04409
219.032	0.04385
219.409	0.04374
219.786	0.04311
220.163	0.04293
220.54	0.04284
220.917	0.04302
221.294	0.04309
221.671	0.04203
222.048	0.04122
222.425	0.04092
222.802	0.04096
223.179	0.03975
223.556	0.03931
223.932	0.03854
224.309	0.0381
224.686	0.03829
225.062	0.03917
225.439	0.03921
225.815	0.03966
226.192	0.03973
226.568	0.04025
226.945	0.04081
227.321	0.04054
227.698	0.04135
228.074	0.04152
228.45	0.04161
228.827	0.04144
229.203	0.04084
229.579	0.04125
229.955	0.04197
230.331	0.04275
230.707	0.04324
231.083	0.04412
231.46	0.04373
231.835	0.04476
232.211	0.04511
232.587	0.04451
232.963	0.04433
233.339	0.04437
233.715	0.0442
234.091	0.04412
234.466	0.04373
234.842	0.0432
235.218	0.04274
235.593	0.04287
235.969	0.04291
236.344	0.04285
236.72	0.04302
237.095	0.04409
237.471	0.04397
237.846	0.04416
238.222	0.04353
238.597	0.04333
238.972	0.04265
239.348	0.04322
239.723	0.04314
240.098	0.04348
240.473	0.0436
240.848	0.0437
241.223	0.04281
241.598	0.04244
241.973	0.04272
242.348	0.04358
242.723	0.0433
243.098	0.04428
243.473	0.04347
243.848	0.04345
244.223	0.0441
244.597	0.04401
244.972	0.04399
245.347	0.04452
245.721	0.04426
246.096	0.04416
246.47	0.04396
246.845	0.04461
247.219	0.04461
247.594	0.04391
247.968	0.04353
248.343	0.0439
248.717	0.04414
249.091	0.04473
249.466	0.04466
249.84	0.04473
250.214	0.04386
250.588	0.04439
250.962	0.04413
251.336	0.04454
251.71	0.0439
252.084	0.04331
252.458	0.04305
252.832	0.04284
253.206	0.04207
253.58	0.04179
253.954	0.04209
254.328	0.04285
254.702	0.04274
255.075	0.043
255.449	0.04326
255.823	0.04434
256.196	0.04391
256.57	0.04353
256.943	0.04344
257.317	0.0437
257.69	0.04376
258.064	0.04436
258.437	0.04428
258.81	0.04371
259.184	0.04386
259.557	0.04407
259.93	0.04441
260.303	0.04492
260.677	0.04541
261.05	0.04585
261.423	0.04609
261.796	0.0459
262.169	0.04534
262.542	0.04524
262.915	0.04496
263.288	0.04544
263.661	0.04502
264.033	0.04534
264.406	0.04592
264.779	0.04615
265.152	0.04623
265.524	0.04626
265.897	0.04618
266.27	0.04595
266.642	0.04648
267.015	0.04715
267.387	0.04781
267.76	0.04771
268.132	0.04767
268.504	0.0475
268.877	0.04729
269.249	0.04766
269.621	0.04808
269.994	0.04777
270.366	0.04795
270.738	0.04818
271.11	0.04837
271.482	0.04816
271.854	0.04819
272.226	0.04817
272.598	0.04776
272.97	0.048
273.342	0.04749
273.714	0.04697
274.086	0.04758
274.458	0.04791
274.829	0.04762
275.201	0.04767
275.573	0.04787
275.944	0.04826
276.316	0.04827
276.688	0.0489
277.059	0.04942
277.431	0.04972
277.802	0.0508
278.173	0.05188
278.545	0.05343
278.916	0.0556
279.287	0.05818
279.659	0.06166
280.03	0.06616
280.401	0.0729
280.772	0.08057
281.143	0.0907
281.515	0.10366
281.886	0.11863
282.257	0.13717
282.628	0.15895
282.998	0.18327
283.369	0.20946
283.74	0.23645
284.111	0.26284
284.482	0.28764
284.853	0.30946
285.223	0.32834
285.594	0.34336
285.965	0.35452
286.335	0.36187
286.706	0.36625
287.076	0.36822
287.447	0.36758
287.817	0.36516
288.188	0.36132
288.558	0.35597
288.928	0.34904
289.299	0.3403
289.669	0.32986
290.039	0.31743
290.409	0.30312
290.779	0.28759
291.149	0.27099
291.52	0.25411
291.89	0.23764
292.26	0.22163
292.629	0.20665
292.999	0.19262
293.369	0.17982
293.739	0.16819
294.109	0.15779
294.479	0.14851
294.848	0.14021
295.218	0.13289
295.588	0.12629
295.957	0.12025
296.327	0.11477
296.696	0.10953
297.066	0.10441
297.435	0.09951
297.805	0.09452
298.174	0.08964
298.544	0.08484
298.913	0.08012
299.282	0.07563
299.651	0.07129
300.021	0.06711
300.39	0.06312
300.759	0.05945
301.128	0.05606
301.497	0.05295
301.866	0.0501
302.235	0.04746
302.604	0.04501
302.973	0.04269
303.342	0.04043
303.71	0.03827
304.079	0.03618
304.448	0.03417
304.817	0.03228
305.185	0.03051
305.554	0.02889
305.923	0.0273
306.291	0.02565
306.66	0.02414
307.028	0.0228
307.397	0.02131
307.765	0.02003
308.133	0.01867
308.502	0.01748
308.87	0.01617
309.238	0.01496
309.606	0.01388
309.975	0.01287
310.343	0.01191
310.711	0.01111
311.079	0.01044
311.447	0.00972
311.815	0.00914
312.183	0.00877
312.551	0.00851
312.919	0.00831
313.286	0.00818
313.654	0.00819
314.022	0.00844
314.39	0.00871
314.757	0.00889
315.125	0.0093
315.492	0.0096
315.86	0.01002
316.228	0.01031
316.595	0.01061
316.962	0.01054
317.33	0.01025
317.697	0.00993
318.065	0.0096
318.432	0.00915
318.799	0.00867
319.166	0.00832
319.534	0.00789
319.901	0.00732
320.268	0.00669
320.635	0.00604
321.002	0.00538
321.369	0.00471
321.736	0.00401
322.103	0.00334
322.47	0.0027
322.836	0.0021
323.203	0.00153
323.57	0.00099
323.937	0.00046
324.303	0.00004
324.67	-0.00006
325.037	-0.00006
325.403	-0.00006
325.77	-0.00006
326.136	-0.00006
326.503	-0.00006
326.869	-0.00006
327.235	-0.00006
327.602	-0.00006
327.968	-0.00006
328.334	-0.00006
328.7	-0.00006
329.067	-0.00006
329.433	-0.00006
329.799	-0.00006
330.165	-0.00006
330.531	-0.00006
330.897	-0.00006
331.263	-0.00006
331.629	-0.00006
331.995	-0.00006
332.36	-0.00006
332.726	-0.00006
333.092	-0.00006
333.458	-0.00006
333.823	-0.00006
334.189	-0.00006
334.554	-0.00006
334.92	-0.00006
335.286	-0.00006
335.651	-0.00006
336.016	-0.00006
336.382	-0.00006
336.747	-0.00006
337.113	-0.00006
337.478	-0.00006
337.843	-0.00006
338.208	-0.00006
338.573	-0.00006
338.939	-0.00006
339.304	-0.00006
339.669	-0.00006
340.034	-0.00006
340.399	0.00002
340.764	0.00005
341.129	0.00021
341.493	0.00035
341.858	0.00054
342.223	0.00085
342.588	0.00115
342.952	0.00154
343.317	0.00198
343.682	0.00234
344.046	0.00273
344.411	0.00322
344.775	0.00365
345.14	0.00406
345.504	0.00453
345.869	0.00494
346.233	0.00532
346.597	0.00565
346.962	0.006
347.326	0.00636
347.69	0.00666
348.054	0.00679
348.418	0.007
348.782	0.00702
349.146	0.00707
349.51	0.00708
349.874	0.007
350.238	0.00701
350.602	0.00695
350.966	0.00691
351.33	0.00694
351.693	0.00692
352.057	0.00683
352.421	0.00686
352.784	0.00704
353.148	0.00713
353.512	0.00733
353.875	0.00757
354.239	0.00793
354.602	0.0083
354.966	0.0087
355.329	0.00923
355.692	0.00985
356.056	0.01047
356.419	0.01114
356.782	0.01181
357.145	0.0125
357.508	0.01316
357.871	0.01374
358.234	0.01433
358.597	0.01487
358.96	0.01541
359.323	0.016
359.686	0.01656
360.049	0.01707
360.412	0.01745
360.775	0.01787
361.137	0.01823
361.5	0.01859
361.863	0.01887
362.225	0.01912
362.588	0.01932
362.951	0.01946
363.313	0.01959
363.675	0.01971
364.038	0.01984
364.4	0.01997
364.763	0.0201
365.125	0.02025
365.487	0.02042
365.849	0.02058
366.212	0.02077
366.574	0.02098
366.936	0.02121
367.298	0.02144
367.66	0.02165
368.022	0.02185
368.384	0.02202
368.746	0.02222
369.108	0.02242
369.469	0.02261
369.831	0.02279
370.193	0.02298
370.555	0.02316
370.916	0.02334
371.278	0.02351
371.64	0.02366
372.001	0.02381
372.363	0.02397
372.724	0.02413
373.086	0.02426
373.447	0.02437
373.808	0.02446
374.17	0.02451
374.531	0.02453
374.892	0.02455
375.253	0.02459
375.615	0.02465
375.976	0.02474
376.337	0.02485
376.698	0.02501
377.059	0.02518
377.42	0.02542
377.781	0.0257
378.141	0.02603
378.502	0.0263
378.863	0.02658
379.224	0.02692
379.585	0.02724
379.945	0.02753
380.306	0.02787
380.666	0.02816
381.027	0.02848
381.388	0.02879
381.748	0.02914
382.108	0.02944
382.469	0.02977
382.829	0.03004
383.19	0.0303
383.55	0.03051
383.91	0.03062
384.27	0.03065
384.63	0.03067
384.991	0.03066
385.351	0.03059
385.711	0.03056
386.071	0.0306
386.431	0.03065
386.791	0.03064
387.15	0.03066
387.51	0.03069
387.87	0.03061
388.23	0.03054
388.589	0.03041
388.949	0.03009
389.309	0.02991
389.668	0.02983
390.028	0.0298
390.387	0.02987
390.747	0.03002
391.106	0.03025
391.466	0.03062
391.825	0.03111
392.184	0.03165
392.544	0.03219
392.903	0.03286
393.262	0.03338
393.621	0.0339
393.98	0.03436
394.339	0.03476
394.698	0.03512
395.057	0.0355
395.416	0.03608
395.775	0.03679
396.134	0.03766
396.493	0.03881
396.852	0.03997
397.211	0.04106
397.569	0.04219
397.928	0.04329
398.287	0.04437
398.645	0.04539
399.004	0.04639
399.362	0.04727
399.721	0.04814
400.079	0.04892
400.438	0.04955
400.796	0.05019
401.154	0.0507
401.512	0.05133
401.871	0.05188
402.229	0.05257
402.587	0.05326
402.945	0.05397
403.303	0.05457
403.661	0.05508
404.019	0.0555
404.377	0.05563
404.735	0.0556
405.093	0.0554
405.451	0.05525
405.808	0.055
406.166	0.05479
406.524	0.05452
406.882	0.05438
407.239	0.05421
407.597	0.05413
407.954	0.0541
408.312	0.05411
408.669	0.05418
409.027	0.05416
409.384	0.05434
409.741	0.05445
410.099	0.05453
410.456	0.05447
410.813	0.0545
411.17	0.05454
411.527	0.05467
411.884	0.0549
412.242	0.0554
412.599	0.05593
412.956	0.05642
413.312	0.05701
413.669	0.05765
414.026	0.0583
414.383	0.05886
414.74	0.05944
415.096	0.06003
415.453	0.06063
415.81	0.0613
416.166	0.06208
416.523	0.0629
416.879	0.06372
417.236	0.06449
417.592	0.06526
417.949	0.06603
418.305	0.06668
418.661	0.0673
419.018	0.06782
419.374	0.06838
419.73	0.0688
420.086	0.06926
420.442	0.0697
420.798	0.07004
421.154	0.07033
421.51	0.07057
421.866	0.07081
422.222	0.07101
422.578	0.07123
422.934	0.0714
423.29	0.07155
423.646	0.07171
424.001	0.07192
424.357	0.07204
424.713	0.07224
425.068	0.07248
425.424	0.07275
425.779	0.07289
426.135	0.07305
426.49	0.07316
426.845	0.07324
427.201	0.07338
427.556	0.07343
427.911	0.07344
428.266	0.07344
428.622	0.0734
428.977	0.07341
429.332	0.07347
429.687	0.07349
430.042	0.07357
430.397	0.07365
430.752	0.07373
431.107	0.07372
431.461	0.07373
431.816	0.07377
432.171	0.07382
432.526	0.07386
432.88	0.07376
433.235	0.07379
433.59	0.07379
433.944	0.0737
434.299	0.07366
434.653	0.07356
435.008	0.0735
435.362	0.07348
435.716	0.07347
436.071	0.0735
436.425	0.07348
436.779	0.07343
437.133	0.07338
437.487	0.07325
437.841	0.07309
438.195	0.07294
438.549	0.07282
438.903	0.07269
439.257	0.07257
439.611	0.07249
439.965	0.07233
440.319	0.07225
440.673	0.0721
441.026	0.07193
441.38	0.07185
441.734	0.07171
442.087	0.07158
442.441	0.07153
442.794	0.07141
443.148	0.07123
443.501	0.07113
443.855	0.07096
444.208	0.07082
444.561	0.07067
444.915	0.07051
445.268	0.07036
445.621	0.07011
445.974	0.06985
446.327	0.06969
446.68	0.06943
447.033	0.0691
447.386	0.06888
447.739	0.06863
448.092	0.06838
448.445	0.06811
448.798	0.06786
449.15	0.0676
449.503	0.06732
449.856	0.06698
450.209	0.06662
450.561	0.06634
450.914	0.06601
451.266	0.06574
451.619	0.06538
451.971	0.06497
452.323	0.06459
452.676	0.06424
453.028	0.06392
453.38	0.06356
453.733	0.06315
454.085	0.06282
454.437	0.06249
454.789	0.06213
455.141	0.06174
455.493	0.06134
455.845	0.06092
456.197	0.06048
456.549	0.06007
456.901	0.05972
457.253	0.0593
457.604	0.05899
457.956	0.05862
458.308	0.05818
458.659	0.05771
459.011	0.0573
459.362	0.05694
459.714	0.0566
460.065	0.05617
460.417	0.05578
460.768	0.05539
461.12	0.05499
461.471	0.05456
461.822	0.05416
462.173	0.05369
462.525	0.05333
462.876	0.05295
463.227	0.05261
463.578	0.05227
463.929	0.05189
464.28	0.05148
464.631	0.05114
464.982	0.05074
465.332	0.05038
465.683	0.05006
466.034	0.04974
466.385	0.0494
466.735	0.0491
467.086	0.04868
467.437	0.04837
467.787	0.04804
468.138	0.04774
468.488	0.04739
468.839	0.04703
469.189	0.04667
469.539	0.04637
469.89	0.04599
470.24	0.04567
470.59	0.04533
470.94	0.04494
471.29	0.04458
471.64	0.04419
471.99	0.04383
472.34	0.04342
472.69	0.04302
473.04	0.04266
473.39	0.04231
473.74	0.04191
474.09	0.04148
474.439	0.04123
474.789	0.04084
475.139	0.04042
475.488	0.04001
475.838	0.03966
476.188	0.03929
476.537	0.03889
476.886	0.03849
477.236	0.03812
477.585	0.03772
477.935	0.03731
478.284	0.03691
478.633	0.03648
478.982	0.03613
479.331	0.03567
479.68	0.03533
480.03	0.03496
480.379	0.03456
480.728	0.03409
481.076	0.03374
481.425	0.03328
481.774	0.03276
482.123	0.03233
482.472	0.03194
482.821	0.03151
483.169	0.03106
483.518	0.03067
483.866	0.03024
484.215	0.02985
484.563	0.02941
484.912	0.02899
485.26	0.02857
485.609	0.0282
485.957	0.02778
486.305	0.02735
486.654	0.02702
487.002	0.0266
487.35	0.02622
487.698	0.02583
488.046	0.02549
488.394	0.02509
488.742	0.02478
489.09	0.02444
489.438	0.02409
489.786	0.02373
490.134	0.0234
490.482	0.02306
490.829	0.02277
491.177	0.02246
491.525	0.02215
491.872	0.02188
492.22	0.02157
492.567	0.02128
492.915	0.02098
493.262	0.02069
493.61	0.02043
493.957	0.02015
494.304	0.01988
494.652	0.01964
494.999	0.01934
495.346	0.01914
495.693	0.01891
496.04	0.01868
496.387	0.01845
496.734	0.01824
497.081	0.01804
497.428	0.01784
497.775	0.01769
498.122	0.01742
498.469	0.01726
498.816	0.0171
499.162	0.01689
499.509	0.01674
499.856	0.01657
500.202	0.01644
500.549	0.01637
500.895	0.01628
501.242	0.01617
501.588	0.01607
501.935	0.01598
502.281	0.0159
502.627	0.01576
502.973	0.01566
503.32	0.01558
503.666	0.01555
504.012	0.01546
504.358	0.01537
504.704	0.01534
505.05	0.01527
505.396	0.01522
505.742	0.0151
506.088	0.015
506.433	0.01494
506.779	0.01486
507.125	0.01482
507.471	0.01479
507.816	0.01472
508.162	0.0146
508.507	0.01449
508.853	0.01438
509.198	0.01424
509.544	0.01414
509.889	0.01406
510.234	0.01398
510.58	0.01391
510.925	0.0138
511.27	0.01375
511.615	0.01372
511.96	0.01359
512.306	0.01348
512.651	0.01343
512.996	0.01338
513.341	0.01335
513.685	0.01327
514.03	0.01325
514.375	0.01316
514.72	0.01307
515.065	0.01294
515.409	0.01289
515.754	0.01286
516.099	0.01286
516.443	0.01282
516.788	0.01278
517.132	0.01273
517.476	0.01269
517.821	0.01262
518.165	0.01257
518.51	0.0125
518.854	0.01243
519.198	0.01238
519.542	0.01235
519.886	0.0123
520.23	0.01224
520.574	0.01217
520.918	0.01213
521.262	0.01204
521.606	0.01197
521.95	0.01189
522.294	0.01185
522.638	0.01182
522.981	0.01175
523.325	0.01168
523.669	0.01166
524.012	0.01159
524.356	0.01154
524.699	0.01143
525.043	0.01137
525.386	0.01131
525.73	0.01127
526.073	0.0112
526.416	0.01117
526.76	0.01107
527.103	0.01101
527.446	0.01093
527.789	0.01091
528.132	0.01088
528.475	0.01085
528.818	0.01084
529.161	0.01082
529.504	0.01078
529.847	0.01069
530.19	0.01061
530.532	0.01055
530.875	0.01049
531.218	0.01044
531.56	0.01037
531.903	0.01038
532.246	0.01033
532.588	0.01027
532.93	0.01015
533.273	0.01008
533.615	0.00997
533.958	0.00988
534.3	0.0098
534.642	0.00972
534.984	0.0096
535.326	0.00947
535.669	0.00937
536.011	0.00925
536.353	0.00916
536.695	0.00904
537.037	0.00896
537.378	0.0089
537.72	0.00878
538.062	0.00866
538.404	0.00856
538.746	0.00849
539.087	0.00838
539.429	0.00829
539.77	0.00822
540.112	0.00816
540.454	0.00811
540.795	0.00807
541.136	0.00804
541.478	0.00796
541.819	0.00788
542.16	0.00776
542.502	0.00771
542.843	0.00759
543.184	0.0075
543.525	0.00742
543.866	0.00733
544.207	0.00724
544.548	0.00712
544.889	0.00703
545.23	0.00695
545.571	0.00684
545.911	0.00665
546.252	0.00649
546.593	0.00635
546.934	0.00616
547.274	0.00602
547.615	0.00589
547.955	0.00574
548.296	0.00559
548.636	0.00548
548.977	0.00536
549.317	0.00523
549.657	0.00509
549.997	0.00499
550.338	0.00487
550.678	0.00474
551.018	0.00464
551.358	0.00446
551.698	0.00432
552.038	0.00419
552.378	0.00405
552.718	0.00396
553.058	0.0039
553.398	0.00384
553.737	0.0037
554.077	0.0036
554.417	0.00351
554.756	0.00339
555.096	0.00327
555.435	0.00316
555.775	0.003
556.114	0.00287
556.454	0.00273
556.793	0.00256
557.133	0.00243
557.472	0.00227
557.811	0.0021
558.15	0.00195
558.489	0.00182
558.829	0.0017
559.168	0.00154
559.507	0.00136
559.846	0.00118
560.184	0.00105
560.523	0.00089
560.862	0.00079
561.201	0.00063
561.54	0.00048
561.878	0.00037
562.217	0.00025
562.556	0.00016
562.894	0.00005
563.233	-0.00003
563.571	-0.00012
563.91	-0.0002
564.248	-0.00032
564.586	-0.0004
564.925	-0.0005
565.263	-0.00059
565.601	-0.00066
565.939	-0.00076
566.277	-0.00087
566.616	-0.00095
566.954	-0.00101
567.292	-0.00112
567.63	-0.00126
567.967	-0.00135
568.305	-0.0014
568.643	-0.00149
568.981	-0.00159
569.319	-0.0017
569.656	-0.00182
569.994	-0.00189
570.331	-0.002
570.669	-0.00208
571.006	-0.00215
571.344	-0.00223
571.681	-0.00227
572.019	-0.0023
572.356	-0.00236
572.693	-0.00239
573.03	-0.00242
573.368	-0.00242
573.705	-0.00245
574.042	-0.0025
574.379	-0.00254
574.716	-0.00255
575.053	-0.0026
575.39	-0.00267
575.727	-0.00272
576.063	-0.00277
576.4	-0.00277
576.737	-0.00279
577.074	-0.00283
577.41	-0.00287
577.747	-0.00291
578.083	-0.00292
578.42	-0.00295
578.756	-0.00305
579.093	-0.00311
579.429	-0.00314
579.766	-0.00321
580.102	-0.00327
580.438	-0.00333
580.774	-0.00336
581.11	-0.00336
581.446	-0.00337
581.782	-0.00337
582.119	-0.0034
582.454	-0.0034
582.79	-0.00341
583.126	-0.00341
583.462	-0.00349
583.798	-0.00352
584.134	-0.00355
584.469	-0.00352
584.805	-0.00351
585.141	-0.00355
585.476	-0.00355
585.812	-0.00354
586.147	-0.00354
586.482	-0.00355
586.818	-0.00353
587.153	-0.00354
587.488	-0.00353
587.824	-0.00357
588.159	-0.0036
588.494	-0.00364
588.829	-0.00368
589.164	-0.00368
589.499	-0.00368
589.834	-0.00369
590.169	-0.00369
590.504	-0.00363
590.839	-0.00362
591.174	-0.00361
591.508	-0.00365
591.843	-0.00367
592.178	-0.00367
592.512	-0.00367
592.847	-0.00363
593.181	-0.00363
593.516	-0.00362
593.85	-0.00363
594.185	-0.0036
594.519	-0.00362
594.853	-0.00357
595.187	-0.0036
595.522	-0.00359
595.856	-0.00356
596.19	-0.00353
596.524	-0.00352
596.858	-0.00351
597.192	-0.00346
597.526	-0.0035
597.86	-0.0035
598.194	-0.00349
598.527	-0.00347
598.861	-0.00345
599.195	-0.00345
599.528	-0.00343
599.862	-0.00344
600.196	-0.00346
600.529	-0.00347
600.863	-0.00345
601.196	-0.00347
601.529	-0.00346
601.863	-0.00348
602.196	-0.00345
602.529	-0.00344
602.862	-0.00345
603.196	-0.00344
603.529	-0.00345
603.862	-0.00345
604.195	-0.00354
604.528	-0.00355
604.861	-0.00359
605.193	-0.00363
605.526	-0.00364
605.859	-0.00365
606.192	-0.00364
606.524	-0.00368
606.857	-0.00372
607.19	-0.0037
607.522	-0.0037
607.855	-0.00372
608.187	-0.00372
608.52	-0.00375
608.852	-0.00374
609.184	-0.00376
609.517	-0.00374
609.849	-0.00379
610.181	-0.0038
610.513	-0.00383
610.845	-0.00381
611.177	-0.00377
611.509	-0.00376
611.841	-0.00373
612.173	-0.00376
612.505	-0.00378
612.837	-0.00378
613.169	-0.00381
613.5	-0.00379
613.832	-0.00376
614.164	-0.00376
614.495	-0.00374
614.827	-0.00374
615.158	-0.00371
615.49	-0.00367
615.821	-0.00369
616.152	-0.00364
616.484	-0.00367
616.815	-0.00366
617.146	-0.00366
617.477	-0.00367
617.808	-0.0037
618.14	-0.00368
618.471	-0.00373
618.802	-0.00373
619.133	-0.00373
619.463	-0.00374
619.794	-0.00375
620.125	-0.00373
620.456	-0.00378
620.787	-0.00379
621.117	-0.0038
621.448	-0.00383
621.778	-0.00385
622.109	-0.00387
622.439	-0.00389
622.77	-0.0039
623.1	-0.00393
623.43	-0.00392
623.761	-0.00393
624.091	-0.00396
624.421	-0.00396
624.751	-0.00395
625.081	-0.00398
625.412	-0.00393
625.742	-0.00389
626.072	-0.00383
626.401	-0.00383
626.731	-0.00384
627.061	-0.00385
627.391	-0.00383
627.721	-0.00381
628.05	-0.00384
628.38	-0.00384
628.71	-0.00382
629.039	-0.00383
629.369	-0.00379
629.698	-0.00379
630.028	-0.00374
630.357	-0.00374
630.686	-0.00375
631.015	-0.0037
631.345	-0.00371
631.674	-0.00372
632.003	-0.00371
632.332	-0.00374
632.661	-0.00379
632.99	-0.00386
633.319	-0.00388
633.648	-0.00389
633.977	-0.00393
634.306	-0.00393
634.634	-0.00395
634.963	-0.00396
635.292	-0.00396
635.62	-0.00397
635.949	-0.00396
636.277	-0.00399
636.606	-0.00402
636.934	-0.00411
637.263	-0.00414
637.591	-0.00415
637.919	-0.00421
638.248	-0.00422
638.576	-0.00422
638.904	-0.00426
639.232	-0.00426
639.56	-0.00424
639.888	-0.00422
640.216	-0.00423
640.544	-0.00422
640.872	-0.00417
641.2	-0.00416
641.528	-0.00415
641.855	-0.00417
642.183	-0.00416
642.511	-0.0042
642.838	-0.00421
643.166	-0.00423
643.493	-0.0042
643.821	-0.00419
644.148	-0.00418
644.475	-0.00417
644.803	-0.00417
645.13	-0.00417
645.457	-0.00417
645.784	-0.00413
646.112	-0.00415
646.439	-0.0042
646.766	-0.00424
647.093	-0.00424
647.42	-0.00424
647.746	-0.00431
648.073	-0.0043
648.4	-0.00429
648.727	-0.0043
649.053	-0.00429
649.38	-0.00427
649.707	-0.00429
650.033	-0.00432
650.36	-0.00436
650.686	-0.00434
651.013	-0.00435
651.339	-0.0043
651.665	-0.00427
651.992	-0.00425
652.318	-0.00422
652.644	-0.0042
652.97	-0.00415
653.296	-0.00407
653.622	-0.00404
653.948	-0.00402
654.274	-0.00402
654.6	-0.00398
654.926	-0.00399
655.252	-0.00399
655.578	-0.00396
655.903	-0.00395
656.229	-0.00392
656.555	-0.00386
656.88	-0.00379
657.206	-0.00375
657.531	-0.00373
657.857	-0.00367
658.182	-0.00366
658.507	-0.00361
658.833	-0.00359
659.158	-0.0036
659.483	-0.0036
659.808	-0.00361
660.133	-0.00362
660.458	-0.0036
660.783	-0.00353
661.108	-0.00351
661.433	-0.00347
661.758	-0.0034
662.083	-0.00337
662.408	-0.00334
662.732	-0.00333
663.057	-0.00334
663.382	-0.00334
663.706	-0.00337
664.031	-0.00333
664.355	-0.00333
664.68	-0.00332
665.004	-0.00332
665.328	-0.00333
665.653	-0.00327
665.977	-0.00323
666.301	-0.00319
666.625	-0.00316
666.949	-0.00313
667.273	-0.00311
667.597	-0.00308
667.921	-0.00304
668.245	-0.00299
668.569	-0.003
668.893	-0.00298
669.217	-0.00297
669.54	-0.0029
669.864	-0.00287
670.188	-0.00282
670.511	-0.00279
670.835	-0.00278
671.158	-0.00275
671.482	-0.00279
671.805	-0.00276
672.128	-0.00278
672.452	-0.00281
672.775	-0.00282
673.098	-0.00285
673.421	-0.00282
673.744	-0.00281
674.068	-0.00277
674.391	-0.00278
674.714	-0.00274
675.036	-0.00278
675.359	-0.00277
675.682	-0.00274
676.005	-0.00274
676.328	-0.00276
676.65	-0.00272
676.973	-0.00271
677.295	-0.00269
677.618	-0.00268
677.94	-0.00263
678.263	-0.00258
678.585	-0.00252
678.908	-0.00248
679.23	-0.00244
679.552	-0.00242
679.874	-0.00236
680.196	-0.00236
680.519	-0.00233
680.841	-0.0023
681.163	-0.00227
681.485	-0.0023
681.807	-0.00225
682.128	-0.00224
682.45	-0.00224
682.772	-0.00222
683.094	-0.00222
683.415	-0.00217
683.737	-0.00217
684.059	-0.00211
684.38	-0.00208
684.702	-0.00206
685.023	-0.00204
685.344	-0.00204
685.666	-0.00198
685.987	-0.002
686.308	-0.00195
686.629	-0.00192
686.95	-0.00187
687.272	-0.00183
687.593	-0.00181
687.914	-0.00178
688.235	-0.00173
688.555	-0.0017
688.876	-0.00169
689.197	-0.00166
689.518	-0.00164
689.839	-0.0016
690.159	-0.00157
690.48	-0.00155
690.8	-0.00152
691.121	-0.00144
691.441	-0.00141
691.762	-0.00136
692.082	-0.00127
692.402	-0.00125
692.723	-0.00122
693.043	-0.00117
693.363	-0.00115
693.683	-0.00113
694.003	-0.0011
694.323	-0.00108
694.643	-0.00103
694.963	-0.00096
695.283	-0.00091
695.603	-0.00082
695.923	-0.00076
696.243	-0.00068
696.562	-0.00064
696.882	-0.00059
697.202	-0.00053
697.521	-0.00048
697.841	-0.00047
698.16	-0.00044
698.479	-0.00042
698.799	-0.00041
699.118	-0.00036
699.437	-0.00028
699.757	-0.00028
700.076	-0.00026
700.395	-0.00021
700.714	-0.00015
701.033	-0.00007
701.352	-0.00003
701.671	-0.00002
701.99	0.00007
702.308	0.00013
702.627	0.0002
702.946	0.00025
703.265	0.00034
703.583	0.00041
703.902	0.00047
704.22	0.00057
704.539	0.00064
704.857	0.00074
705.176	0.00082
705.494	0.00089
705.812	0.00096
706.131	0.00105
706.449	0.00116
706.767	0.00126
707.085	0.00136
707.403	0.00142
707.721	0.0015
708.039	0.00157
708.357	0.00165
708.675	0.0017
708.993	0.00178
709.31	0.00181
709.628	0.00189
709.946	0.00199
710.263	0.00203
710.581	0.00211
710.898	0.00216
711.216	0.00217
711.533	0.00223
711.851	0.00225
712.168	0.00232
712.485	0.00234
712.802	0.00239
713.12	0.00243
713.437	0.00249
713.754	0.00254
714.071	0.00262
714.388	0.00265
714.705	0.00273
715.022	0.00281
715.338	0.00285
715.655	0.00294
715.972	0.00306
716.289	0.00314
716.605	0.00317
716.922	0.00323
717.238	0.00331
717.555	0.00338
717.871	0.00353
718.188	0.0036
718.504	0.00374
718.82	0.00385
719.136	0.00403
719.453	0.00414
719.769	0.00429
720.085	0.0044
720.401	0.00452
720.717	0.00466
721.033	0.00478
721.349	0.0049
721.665	0.00504
721.98	0.00514
722.296	0.00519
722.612	0.00529
722.927	0.00539
723.243	0.00548
723.559	0.00565
723.874	0.00578
724.19	0.00594
724.505	0.00607
724.82	0.00625
725.136	0.0064
725.451	0.00654
725.766	0.00661
726.081	0.00677
726.396	0.00691
726.711	0.00707
727.026	0.00725
727.341	0.00737
727.656	0.00755
727.971	0.00774
728.286	0.00785
728.601	0.00811
728.916	0.00833
729.23	0.0085
729.545	0.0087
729.859	0.00896
730.174	0.00909
730.488	0.0093
730.803	0.00944
731.117	0.00961
731.431	0.00978
731.746	0.00996
732.06	0.01011
732.374	0.0103
732.688	0.01044
733.002	0.01063
733.316	0.01077
733.63	0.01085
733.944	0.01099
734.258	0.01107
734.572	0.01115
734.886	0.01128
735.199	0.01127
735.513	0.01132
735.827	0.01136
736.14	0.01145
736.454	0.01145
736.767	0.01147
737.081	0.01142
737.394	0.01144
737.708	0.0114
738.021	0.01136
738.334	0.01133
738.647	0.01132
738.96	0.01126
739.273	0.01123
739.587	0.01118
739.9	0.01114
740.212	0.01112
740.525	0.01107
740.838	0.01099
741.151	0.01099
741.464	0.01096
741.776	0.01095
742.089	0.01092
742.402	0.01095
742.714	0.0109
743.027	0.01089
743.339	0.01088
743.651	0.01092
743.964	0.01089
744.276	0.01097
744.588	0.01104
744.901	0.01108
745.213	0.01109
745.525	0.01113
745.837	0.01119
746.149	0.01119
746.461	0.01117
746.773	0.01123
747.085	0.01131
747.396	0.01139
747.708	0.01143
748.02	0.01143
748.331	0.01149
748.643	0.01156
748.955	0.01155
749.266	0.01159
749.577	0.0116
749.889	0.01166
750.2	0.01165
750.512	0.01167
750.823	0.01166
751.134	0.0117
751.445	0.0117
751.756	0.01171
752.067	0.01174
752.378	0.01173
752.689	0.01172
753	0.01173
753.311	0.01174
753.622	0.01167
753.932	0.01166
754.243	0.01162
754.554	0.01162
754.864	0.01155
755.175	0.01148
755.485	0.01147
755.796	0.01138
756.106	0.01134
756.417	0.01135
756.727	0.01133
757.037	0.01127
757.347	0.0112
757.658	0.01101
757.968	0.01099
758.278	0.01091
758.588	0.0108
758.898	0.0107
759.208	0.01066
759.517	0.01058
759.827	0.01046
760.137	0.01036
760.447	0.01031
760.756	0.01016
761.066	0.01004
761.375	0.00996
761.685	0.0099
761.994	0.00985
762.304	0.00981
762.613	0.00976
762.922	0.00965
763.232	0.00956
763.541	0.00957
763.85	0.00956
764.159	0.00949
764.468	0.00938
764.777	0.00936
765.086	0.00935
765.395	0.00928
765.704	0.00916
766.013	0.00921
766.321	0.00917
766.63	0.00923
766.939	0.00923
767.247	0.00935
767.556	0.00944
767.864	0.00947
768.173	0.00944
768.481	0.00939
768.789	0.00935
769.098	0.00938
769.406	0.00935
769.714	0.00926
770.022	0.00917
770.33	0.00907
770.638	0.0091
770.946	0.00904
771.254	0.00893
771.562	0.00885
771.87	0.00888
772.178	0.00884
772.486	0.00881
772.793	0.00872
773.101	0.00854
773.408	0.00845
773.716	0.00824
774.023	0.00816
774.331	0.0081
774.638	0.00804
774.946	0.00802
775.253	0.00795
775.56	0.00789
775.867	0.00781
776.174	0.00783
776.481	0.00778
776.788	0.00769
777.095	0.00762
777.402	0.00754
777.709	0.00754
778.016	0.00747
778.323	0.00732
778.63	0.00733
778.936	0.00716
779.243	0.0071
779.549	0.00711
779.856	0.00704
780.162	0.00695
780.469	0.00677
780.775	0.00661
781.082	0.00638
781.388	0.00619
781.694	0.00605
782	0.00586
782.306	0.00574
782.612	0.00559
782.918	0.00541
783.224	0.0053
783.53	0.00513
783.836	0.00513
784.142	0.00503
784.448	0.005
784.753	0.00491
785.059	0.00478
785.365	0.00472
785.67	0.00472
785.976	0.00457
786.281	0.00444
786.586	0.00441
786.892	0.00433
787.197	0.00433
787.502	0.00434
787.808	0.00424
788.113	0.0041
788.418	0.0039
788.723	0.00377
789.028	0.00365
789.333	0.00351
789.638	0.00348
789.942	0.0034
790.247	0.00316
790.552	0.0031
790.857	0.00294
791.161	0.00277
791.466	0.00261
791.77	0.00238
792.075	0.00217
792.379	0.00207
792.684	0.00193
792.988	0.00181
793.292	0.00167
793.597	0.00154
793.901	0.00144
794.205	0.00133
794.509	0.00137
794.813	0.00139
795.117	0.00127
795.421	0.00118
795.725	0.00122
796.029	0.00114
796.332	0.00107
796.636	0.00104
796.94	0.00092
797.243	0.00082
797.547	0.0008
797.85	0.00074
798.154	0.00068
798.457	0.0006
798.761	0.00054
799.064	0.00044
799.367	0.00039
799.67	0.00032
799.973	0.00021
800.277	0.00006
800.58	-0.00004
800.883	-0.00017
801.186	-0.00022
801.488	-0.00019
801.791	-0.00011
802.094	-0.0002
802.397	-0.00027
802.699	-0.00022
803.002	-0.00017
803.305	-0.0002
803.607	-0.0003
803.91	-0.00029
804.212	-0.00036
804.515	-0.00033
804.817	-0.00032
805.119	-0.00052
805.421	-0.00047
805.724	-0.00055
806.026	-0.00068
806.328	-0.0007
806.63	-0.0007
806.932	-0.00062
807.234	-0.00053
807.535	-0.00058
807.837	-0.00078
808.139	-0.00083
808.441	-0.0008
808.742	-0.00089
809.044	-0.00102
809.346	-0.00114
809.647	-0.00105
809.948	-0.00101
810.25	-0.00113
810.551	-0.00111
810.853	-0.0011
811.154	-0.00124
811.455	-0.00129
811.756	-0.00137
812.057	-0.00148
812.358	-0.00144
812.659	-0.00154
812.96	-0.00157
813.261	-0.00157
813.562	-0.00154
813.863	-0.00158
814.163	-0.00154
814.464	-0.00145
814.765	-0.00157
815.065	-0.00168
815.366	-0.00174
815.666	-0.00184
815.967	-0.0021
816.267	-0.00213
816.567	-0.00216
816.868	-0.00241
817.168	-0.00246
817.468	-0.00238
817.768	-0.0023
818.068	-0.00231
818.368	-0.00223
818.668	-0.00219
818.968	-0.0022
819.268	-0.00225
819.568	-0.00234
819.867	-0.00252
820.167	-0.00256
820.467	-0.00252
820.766	-0.00263
821.066	-0.00273
821.365	-0.00271
821.665	-0.00265
821.964	-0.00256
822.263	-0.00253
822.563	-0.0025
822.862	-0.00235
823.161	-0.00196
823.46	-0.00193
823.759	-0.00213
824.058	-0.00206
824.357	-0.00193
824.656	-0.00186
824.955	-0.00181
825.254	-0.0015
825.552	-0.00132
825.851	-0.00103
826.15	-0.00103
826.448	-0.00081
826.747	-0.00047
827.045	-0.0003
827.344	0.00006
827.642	0.00028
827.941	0.00049
828.239	0.00085
828.537	0.00118
828.835	0.00131
829.133	0.00144
829.432	0.00151
829.73	0.00166
830.028	0.002
830.325	0.00221
830.623	0.00228
830.921	0.00249
831.219	0.00275
831.517	0.00275
831.814	0.00286
832.112	0.00292
832.409	0.00332
832.707	0.00361
833.004	0.00341
833.302	0.00335
833.599	0.00346
833.896	0.00363
834.194	0.00364
834.491	0.00356
834.788	0.00361
835.085	0.00361
835.382	0.0035
835.679	0.00361
835.976	0.00387
836.273	0.00412
836.57	0.0042
836.866	0.0043
837.163	0.0044
837.46	0.00469
837.756	0.00498
838.053	0.0054
838.349	0.00544
838.646	0.00541
838.942	0.00559
839.239	0.00612
839.535	0.0064
839.831	0.00654
840.127	0.00683
840.423	0.0071
840.72	0.00729
841.016	0.00763
841.312	0.00819
841.607	0.00861
841.903	0.00908
842.199	0.00895
842.495	0.00943
842.791	0.00931
843.086	0.00961
843.382	0.00963
843.677	0.00946
843.973	0.00931
844.268	0.00943
844.564	0.00953
844.859	0.00988
845.154	0.0094
845.45	0.00925
845.745	0.00952
846.04	0.00975
846.335	0.00958
846.63	0.00953
846.925	0.01002
847.22	0.00971
847.515	0.01006
847.81	0.01054
848.104	0.01023
848.399	0.01043
848.694	0.00998
848.988	0.01047
849.283	0.01039
849.578	0.01135
849.872	0.01211
850.166	0.01287
850.461	0.01289
850.755	0.01361
851.049	0.01386
851.343	0.01448
851.638	0.01446
851.932	0.01406
852.226	0.01435
852.52	0.01392
852.814	0.01458
853.107	0.01354
853.401	0.01425
853.695	0.01433
853.989	0.01413
854.282	0.01504
854.576	0.01553
854.869	0.0159
855.163	0.01641
855.456	0.01715
855.75	0.01759
856.043	0.01783
856.336	0.01796
856.63	0.01925
856.923	0.01908
857.216	0.01837
857.509	0.01801
857.802	0.0185
858.095	0.01852
858.388	0.01879
858.681	0.02065
858.974	0.02029
859.266	0.02076
859.559	0.02014
859.852	0.01963
860.144	0.01992
860.437	0.01977
860.729	0.02053
861.022	0.02046
861.314	0.02054
861.606	0.02132
861.899	0.02086
862.191	0.02066
862.483	0.0204
862.775	0.01909
863.067	0.01892
863.359	0.01959
863.651	0.01996
863.943	0.01934
864.235	0.01853
864.527	0.01866
864.819	0.01775
865.11	0.01802
865.402	0.01932
865.693	0.02008
865.985	0.01982
866.276	0.01982
866.568	0.01907
866.859	0.01934
867.151	0.01997
867.442	0.0198
867.733	0.01984
868.024	0.01979
868.315	0.01942
868.606	0.02025
868.897	0.02026
869.188	0.02024
869.479	0.02017
869.77	0.02014
870.061	0.0208
870.351	0.02228
870.642	0.0221
870.933	0.02251
871.223	0.0226
871.514	0.02184
871.804	0.02179
872.095	0.02227
872.385	0.02225
872.675	0.0232
