Data from 5 min laser_Absorbance_01.txt Node
Date: Fri Jan 27 16:22:01 EST 2023
User: UV-vis
Spectrometer: FLMS04918
Trigger mode: 0
Integration Time (sec): 1.340000E-3
Scans to average: 10
Electric dark correction enabled: true
Nonlinearity correction enabled: false
Boxcar width: 10
XAxis mode: Wavelengths
Number of Pixels in Spectrum: 2048
>>>>>Begin Spectral Data<<<<<
179.23	0.02165
179.611	0.02866
179.992	-0.00526
180.373	0.00636
180.754	0.18768
181.134	0.09458
181.515	0.08482
181.896	0.04023
182.276	0.02819
182.657	-0.03387
183.038	-0.1357
183.418	-0.22171
183.799	-0.34936
184.179	-0.01613
184.56	0.08188
184.94	0.08009
185.32	0.09208
185.701	0.0954
186.081	0.0798
186.461	0.08796
186.842	0.08828
187.222	0.08362
187.602	0.0792
187.982	0.07558
188.362	0.0716
188.742	0.06685
189.122	0.06523
189.502	0.06271
189.882	0.06524
190.262	0.06705
190.642	0.06804
191.022	0.06898
191.402	0.06695
191.781	0.06834
192.161	0.06666
192.541	0.0637
192.92	0.06303
193.3	0.06464
193.68	0.06363
194.059	0.06476
194.439	0.06133
194.818	0.05852
195.198	0.05964
195.577	0.05925
195.957	0.06126
196.336	0.05996
196.715	0.06066
197.094	0.06234
197.474	0.06674
197.853	0.06754
198.232	0.06815
198.611	0.06716
198.99	0.06727
199.369	0.07084
199.748	0.06981
200.127	0.06955
200.506	0.07261
200.885	0.07491
201.264	0.0711
201.643	0.07137
202.022	0.06994
202.401	0.07236
202.779	0.0756
203.158	0.07477
203.537	0.07596
203.915	0.08004
204.294	0.08311
204.673	0.0835
205.051	0.08381
205.43	0.07978
205.808	0.07803
206.187	0.07792
206.565	0.07618
206.943	0.07642
207.322	0.0748
207.7	0.07721
208.078	0.07598
208.456	0.0742
208.835	0.07274
209.213	0.07188
209.591	0.07317
209.969	0.07223
210.347	0.0716
210.725	0.06895
211.103	0.06869
211.481	0.06963
211.859	0.06569
212.237	0.06453
212.614	0.06252
212.992	0.06434
213.37	0.06734
213.748	0.06838
214.125	0.06598
214.503	0.07026
214.881	0.07175
215.258	0.07262
215.636	0.06975
216.013	0.07173
216.391	0.0736
216.768	0.07311
217.145	0.0742
217.523	0.07172
217.9	0.07246
218.277	0.07248
218.655	0.07392
219.032	0.07666
219.409	0.0776
219.786	0.07712
220.163	0.07965
220.54	0.07905
220.917	0.07816
221.294	0.07484
221.671	0.07494
222.048	0.07892
222.425	0.08
222.802	0.07872
223.179	0.07841
223.556	0.07835
223.932	0.07676
224.309	0.07766
224.686	0.07993
225.062	0.08214
225.439	0.08132
225.815	0.08384
226.192	0.08389
226.568	0.08308
226.945	0.08151
227.321	0.08031
227.698	0.07975
228.074	0.07858
228.45	0.07937
228.827	0.07848
229.203	0.08212
229.579	0.08131
229.955	0.08056
230.331	0.0795
230.707	0.07839
231.083	0.07908
231.46	0.08065
231.835	0.08312
232.211	0.08195
232.587	0.08133
232.963	0.07935
233.339	0.08061
233.715	0.08026
234.091	0.07985
234.466	0.07882
234.842	0.07866
235.218	0.07948
235.593	0.07898
235.969	0.08176
236.344	0.08357
236.72	0.08585
237.095	0.08439
237.471	0.08449
237.846	0.08368
238.222	0.08229
238.597	0.08507
238.972	0.08671
239.348	0.08575
239.723	0.08432
240.098	0.08382
240.473	0.08322
240.848	0.08517
241.223	0.08554
241.598	0.08534
241.973	0.08743
242.348	0.08786
242.723	0.08938
243.098	0.09165
243.473	0.09515
243.848	0.09218
244.223	0.09203
244.597	0.0917
244.972	0.09256
245.347	0.09161
245.721	0.09032
246.096	0.09165
246.47	0.09197
246.845	0.09055
247.219	0.09426
247.594	0.09674
247.968	0.09703
248.343	0.09741
248.717	0.09859
249.091	0.09979
249.466	0.09921
249.84	0.099
250.214	0.09985
250.588	0.10011
250.962	0.09628
251.336	0.09533
251.71	0.09484
252.084	0.09451
252.458	0.09422
252.832	0.09356
253.206	0.09311
253.58	0.09392
253.954	0.09427
254.328	0.09105
254.702	0.08984
255.075	0.08553
255.449	0.0835
255.823	0.08341
256.196	0.08302
256.57	0.08151
256.943	0.08057
257.317	0.0827
257.69	0.08243
258.064	0.08178
258.437	0.08137
258.81	0.08256
259.184	0.08389
259.557	0.08624
259.93	0.08733
260.303	0.08699
260.677	0.08724
261.05	0.08753
261.423	0.08582
261.796	0.08627
262.169	0.0886
262.542	0.08976
262.915	0.09265
263.288	0.0934
263.661	0.09436
264.033	0.09624
264.406	0.09784
264.779	0.09693
265.152	0.09586
265.524	0.09706
265.897	0.09966
266.27	0.09915
266.642	0.09893
267.015	0.09887
267.387	0.09826
267.76	0.09857
268.132	0.09823
268.504	0.10035
268.877	0.10204
269.249	0.10513
269.621	0.10458
269.994	0.10448
270.366	0.10439
270.738	0.10275
271.11	0.10356
271.482	0.10377
271.854	0.10125
272.226	0.10021
272.598	0.10198
272.97	0.10273
273.342	0.10359
273.714	0.10216
274.086	0.10409
274.458	0.10652
274.829	0.10715
275.201	0.10641
275.573	0.10538
275.944	0.10651
276.316	0.10557
276.688	0.10713
277.059	0.10609
277.431	0.10612
277.802	0.1073
278.173	0.10743
278.545	0.10867
278.916	0.11072
279.287	0.11284
279.659	0.11628
280.03	0.11983
280.401	0.12331
280.772	0.1283
281.143	0.13241
281.515	0.13605
281.886	0.13857
282.257	0.14048
282.628	0.14222
282.998	0.14377
283.369	0.14487
283.74	0.14587
284.111	0.1463
284.482	0.14652
284.853	0.14704
285.223	0.14726
285.594	0.1472
285.965	0.14716
286.335	0.14719
286.706	0.14705
287.076	0.14694
287.447	0.14676
287.817	0.14623
288.188	0.14586
288.558	0.14549
288.928	0.14496
289.299	0.14432
289.669	0.14364
290.039	0.14286
290.409	0.14201
290.779	0.14118
291.149	0.1402
291.52	0.13928
291.89	0.13844
292.26	0.13755
292.629	0.13644
292.999	0.13549
293.369	0.13458
293.739	0.13369
294.109	0.13273
294.479	0.13187
294.848	0.13096
295.218	0.13002
295.588	0.12924
295.957	0.12851
296.327	0.12753
296.696	0.12654
297.066	0.12555
297.435	0.12453
297.805	0.1235
298.174	0.12231
298.544	0.12109
298.913	0.11989
299.282	0.11867
299.651	0.11745
300.021	0.11628
300.39	0.11523
300.759	0.11418
301.128	0.11326
301.497	0.11248
301.866	0.1118
302.235	0.11106
302.604	0.11042
302.973	0.10977
303.342	0.10912
303.71	0.10819
304.079	0.10735
304.448	0.10632
304.817	0.10523
305.185	0.10396
305.554	0.10256
305.923	0.10119
306.291	0.09963
306.66	0.09819
307.028	0.09686
307.397	0.09532
307.765	0.09396
308.133	0.09247
308.502	0.09106
308.87	0.08955
309.238	0.08804
309.606	0.0866
309.975	0.08532
310.343	0.08402
310.711	0.08291
311.079	0.0819
311.447	0.08099
311.815	0.08017
312.183	0.07976
312.551	0.07948
312.919	0.07947
313.286	0.07977
313.654	0.08039
314.022	0.0813
314.39	0.0822
314.757	0.08298
315.125	0.08396
315.492	0.0848
315.86	0.0857
316.228	0.08637
316.595	0.08699
316.962	0.08741
317.33	0.08752
317.697	0.08745
318.065	0.08736
318.432	0.08699
318.799	0.08653
319.166	0.08595
319.534	0.08531
319.901	0.08464
320.268	0.08426
320.635	0.08399
321.002	0.08364
321.369	0.08314
321.736	0.08251
322.103	0.08195
322.47	0.0814
322.836	0.08084
323.203	0.08029
323.57	0.07967
323.937	0.07917
324.303	0.07876
324.67	0.07844
325.037	0.07826
325.403	0.07821
325.77	0.07808
326.136	0.07817
326.503	0.0783
326.869	0.07846
327.235	0.07878
327.602	0.07893
327.968	0.07893
328.334	0.07871
328.7	0.0785
329.067	0.07827
329.433	0.07808
329.799	0.07791
330.165	0.07779
330.531	0.07774
330.897	0.07772
331.263	0.07801
331.629	0.0783
331.995	0.07872
332.36	0.07928
332.726	0.07982
333.092	0.08042
333.458	0.08116
333.823	0.08179
334.189	0.08252
334.554	0.0833
334.92	0.084
335.286	0.08481
335.651	0.08562
336.016	0.08638
336.382	0.08717
336.747	0.08798
337.113	0.08872
337.478	0.0894
337.843	0.09001
338.208	0.09076
338.573	0.0915
338.939	0.09222
339.304	0.093
339.669	0.0938
340.034	0.09436
340.399	0.09506
340.764	0.09577
341.129	0.09646
341.493	0.09727
341.858	0.09797
342.223	0.09873
342.588	0.09957
342.952	0.10035
343.317	0.1009
343.682	0.10166
344.046	0.10235
344.411	0.10305
344.775	0.10382
345.14	0.10461
345.504	0.10545
345.869	0.10615
346.233	0.10674
346.597	0.10731
346.962	0.10774
347.326	0.10806
347.69	0.10857
348.054	0.10902
348.418	0.10928
348.782	0.10964
349.146	0.10987
349.51	0.11009
349.874	0.11039
350.238	0.1106
350.602	0.11087
350.966	0.1112
351.33	0.11153
351.693	0.11188
352.057	0.11216
352.421	0.11243
352.784	0.11278
353.148	0.11305
353.512	0.11337
353.875	0.11384
354.239	0.11417
354.602	0.11466
354.966	0.11513
355.329	0.11566
355.692	0.11621
356.056	0.1169
356.419	0.11744
356.782	0.11811
357.145	0.11884
357.508	0.11946
357.871	0.12014
358.234	0.12072
358.597	0.12136
358.96	0.12189
359.323	0.12241
359.686	0.12302
360.049	0.12373
360.412	0.12434
360.775	0.12504
361.137	0.1257
361.5	0.12634
361.863	0.12698
362.225	0.12765
362.588	0.12836
362.951	0.12891
363.313	0.12946
363.675	0.12996
364.038	0.13061
364.4	0.13123
364.763	0.1318
365.125	0.13253
365.487	0.13313
365.849	0.13381
366.212	0.13447
366.574	0.13515
366.936	0.13585
367.298	0.13659
367.66	0.13725
368.022	0.138
368.384	0.13872
368.746	0.13945
369.108	0.14013
369.469	0.14093
369.831	0.14175
370.193	0.14245
370.555	0.1433
370.916	0.14416
371.278	0.14503
371.64	0.14574
372.001	0.14648
372.363	0.14731
372.724	0.14808
373.086	0.14885
373.447	0.14963
373.808	0.15033
374.17	0.15108
374.531	0.1518
374.892	0.15254
375.253	0.15324
375.615	0.15394
375.976	0.15472
376.337	0.15552
376.698	0.15648
377.059	0.15732
377.42	0.15814
377.781	0.15918
378.141	0.16007
378.502	0.16099
378.863	0.16193
379.224	0.16302
379.585	0.16406
379.945	0.16518
380.306	0.16618
380.666	0.16727
381.027	0.16837
381.388	0.16959
381.748	0.17081
382.108	0.17198
382.469	0.17317
382.829	0.17452
383.19	0.17581
383.55	0.1771
383.91	0.17834
384.27	0.17954
384.63	0.18081
384.991	0.18191
385.351	0.183
385.711	0.18413
386.071	0.18541
386.431	0.18663
386.791	0.18788
387.15	0.18912
387.51	0.1903
387.87	0.19153
388.23	0.19282
388.589	0.19399
388.949	0.19514
389.309	0.19634
389.668	0.19773
390.028	0.19897
390.387	0.20023
390.747	0.20153
391.106	0.20292
391.466	0.20442
391.825	0.20586
392.184	0.20739
392.544	0.20901
392.903	0.21065
393.262	0.2123
393.621	0.21384
393.98	0.21544
394.339	0.21701
394.698	0.21868
395.057	0.22046
395.416	0.22223
395.775	0.22399
396.134	0.22585
396.493	0.22785
396.852	0.22982
397.211	0.23163
397.569	0.23361
397.928	0.23554
398.287	0.23756
398.645	0.23947
399.004	0.24141
399.362	0.24332
399.721	0.2452
400.079	0.24715
400.438	0.24898
400.796	0.25106
401.154	0.25299
401.512	0.25521
401.871	0.2573
402.229	0.25933
402.587	0.26129
402.945	0.26343
403.303	0.26554
403.661	0.2677
404.019	0.26965
404.377	0.27165
404.735	0.27377
405.093	0.27566
405.451	0.27748
405.808	0.2793
406.166	0.2811
406.524	0.28298
406.882	0.28468
407.239	0.28655
407.597	0.28843
407.954	0.29027
408.312	0.2921
408.669	0.29417
409.027	0.29615
409.384	0.29826
409.741	0.3003
410.099	0.30234
410.456	0.30416
410.813	0.30588
411.17	0.30753
411.527	0.30933
411.884	0.31106
412.242	0.31273
412.599	0.31464
412.956	0.31652
413.312	0.31815
413.669	0.32001
414.026	0.3214
414.383	0.32322
414.74	0.32472
415.096	0.32625
415.453	0.32779
415.81	0.32935
416.166	0.33078
416.523	0.33213
416.879	0.33356
417.236	0.33495
417.592	0.33626
417.949	0.33767
418.305	0.33909
418.661	0.34037
419.018	0.34147
419.374	0.34253
419.73	0.34375
420.086	0.34464
420.442	0.34542
420.798	0.34641
421.154	0.34708
421.51	0.34797
421.866	0.34864
422.222	0.34931
422.578	0.3498
422.934	0.3503
423.29	0.35055
423.646	0.35084
424.001	0.351
424.357	0.35108
424.713	0.35117
425.068	0.35117
425.424	0.3511
425.779	0.35087
426.135	0.35057
426.49	0.35038
426.845	0.3501
427.201	0.34938
427.556	0.34881
427.911	0.34843
428.266	0.34772
428.622	0.34692
428.977	0.3461
429.332	0.34525
429.687	0.3445
430.042	0.34378
430.397	0.34303
430.752	0.34234
431.107	0.34143
431.461	0.34087
431.816	0.33995
432.171	0.33907
432.526	0.33835
432.88	0.33748
433.235	0.33628
433.59	0.33516
433.944	0.33398
434.299	0.33274
434.653	0.33183
435.008	0.33072
435.362	0.32953
435.716	0.32857
436.071	0.3275
436.425	0.32621
436.779	0.32482
437.133	0.32326
437.487	0.32185
437.841	0.3202
438.195	0.31844
438.549	0.3169
438.903	0.31499
439.257	0.31322
439.611	0.31148
439.965	0.30941
440.319	0.30744
440.673	0.30579
441.026	0.30368
441.38	0.30167
441.734	0.29987
442.087	0.29766
442.441	0.2959
442.794	0.29355
443.148	0.29127
443.501	0.28917
443.855	0.28722
444.208	0.28524
444.561	0.28334
444.915	0.28122
445.268	0.27926
445.621	0.27731
445.974	0.27529
446.327	0.27367
446.68	0.27182
447.033	0.26993
447.386	0.26824
447.739	0.26632
448.092	0.26452
448.445	0.26283
448.798	0.26121
449.15	0.25917
449.503	0.25749
449.856	0.25543
450.209	0.25376
450.561	0.25188
450.914	0.25016
451.266	0.24821
451.619	0.24624
451.971	0.24421
452.323	0.24235
452.676	0.24044
453.028	0.23883
453.38	0.23696
453.733	0.23513
454.085	0.23334
454.437	0.23138
454.789	0.22946
455.141	0.22758
455.493	0.22556
455.845	0.22377
456.197	0.22163
456.549	0.22012
456.901	0.2182
457.253	0.21624
457.604	0.21469
457.956	0.21299
458.308	0.21124
458.659	0.20957
459.011	0.20792
459.362	0.20654
459.714	0.20472
460.065	0.20308
460.417	0.20127
460.768	0.19976
461.12	0.19787
461.471	0.19614
461.822	0.19474
462.173	0.19313
462.525	0.19162
462.876	0.19011
463.227	0.18869
463.578	0.18706
463.929	0.18525
464.28	0.1837
464.631	0.18238
464.982	0.18092
465.332	0.1796
465.683	0.17792
466.034	0.17648
466.385	0.17522
466.735	0.17352
467.086	0.17238
467.437	0.17091
467.787	0.16949
468.138	0.16798
468.488	0.16655
468.839	0.16514
469.189	0.16359
469.539	0.16228
469.89	0.16077
470.24	0.15947
470.59	0.15819
470.94	0.15717
471.29	0.15609
471.64	0.15486
471.99	0.15343
472.34	0.15187
472.69	0.15047
473.04	0.14932
473.39	0.14805
473.74	0.14686
474.09	0.1458
474.439	0.14453
474.789	0.14327
475.139	0.14212
475.488	0.14093
475.838	0.13991
476.188	0.13885
476.537	0.13774
476.886	0.13663
477.236	0.13544
477.585	0.13416
477.935	0.13296
478.284	0.13199
478.633	0.13063
478.982	0.12966
479.331	0.12869
479.68	0.12781
480.03	0.12678
480.379	0.12593
480.728	0.12517
481.076	0.12414
481.425	0.12307
481.774	0.12208
482.123	0.12125
482.472	0.1204
482.821	0.11962
483.169	0.11881
483.518	0.11792
483.866	0.11717
484.215	0.11629
484.563	0.11563
484.912	0.11491
485.26	0.11396
485.609	0.11295
485.957	0.11221
486.305	0.11139
486.654	0.11048
487.002	0.10964
487.35	0.10899
487.698	0.10817
488.046	0.10745
488.394	0.10671
488.742	0.10593
489.09	0.1052
489.438	0.10456
489.786	0.10391
490.134	0.1031
490.482	0.10243
490.829	0.10175
491.177	0.10101
491.525	0.10031
491.872	0.09975
492.22	0.09899
492.567	0.0985
492.915	0.09768
493.262	0.09717
493.61	0.09653
493.957	0.09597
494.304	0.09534
494.652	0.09467
494.999	0.09395
495.346	0.09306
495.693	0.09254
496.04	0.09199
496.387	0.09143
496.734	0.09084
497.081	0.09018
497.428	0.08961
497.775	0.089
498.122	0.0885
498.469	0.08786
498.816	0.08736
499.162	0.08661
499.509	0.08617
499.856	0.08535
500.202	0.08499
500.549	0.08454
500.895	0.084
501.242	0.08352
501.588	0.08307
501.935	0.08241
502.281	0.08189
502.627	0.08148
502.973	0.08082
503.32	0.08022
503.666	0.07956
504.012	0.07905
504.358	0.07849
504.704	0.07799
505.05	0.07731
505.396	0.07682
505.742	0.07633
506.088	0.07577
506.433	0.07528
506.779	0.07473
507.125	0.07451
507.471	0.07402
507.816	0.07336
508.162	0.07304
508.507	0.07247
508.853	0.07198
509.198	0.07167
509.544	0.07129
509.889	0.07074
510.234	0.07038
510.58	0.06993
510.925	0.06973
511.27	0.0693
511.615	0.06888
511.96	0.06843
512.306	0.06807
512.651	0.06753
512.996	0.06718
513.341	0.06671
513.685	0.06635
514.03	0.06595
514.375	0.06562
514.72	0.06532
515.065	0.065
515.409	0.06449
515.754	0.0641
516.099	0.06391
516.443	0.0636
516.788	0.0633
517.132	0.06297
517.476	0.06256
517.821	0.06227
518.165	0.06181
518.51	0.06137
518.854	0.06106
519.198	0.06075
519.542	0.06047
519.886	0.06017
520.23	0.05998
520.574	0.05977
520.918	0.05949
521.262	0.05924
521.606	0.05891
521.95	0.05857
522.294	0.05829
522.638	0.05789
522.981	0.05756
523.325	0.05706
523.669	0.05666
524.012	0.05632
524.356	0.05609
524.699	0.05572
525.043	0.0555
525.386	0.05518
525.73	0.05487
526.073	0.05458
526.416	0.05424
526.76	0.05396
527.103	0.05377
527.446	0.05331
527.789	0.05317
528.132	0.05293
528.475	0.0527
528.818	0.05227
529.161	0.05199
529.504	0.05165
529.847	0.05133
530.19	0.05124
530.532	0.0511
530.875	0.05082
531.218	0.05054
531.56	0.05018
531.903	0.05
532.246	0.04967
532.588	0.04952
532.93	0.04935
533.273	0.0491
533.615	0.04891
533.958	0.0487
534.3	0.04839
534.642	0.04826
534.984	0.04785
535.326	0.04744
535.669	0.04719
536.011	0.04714
536.353	0.0469
536.695	0.04662
537.037	0.04648
537.378	0.04608
537.72	0.0458
538.062	0.04559
538.404	0.04547
538.746	0.04525
539.087	0.04501
539.429	0.04473
539.77	0.04446
540.112	0.04405
540.454	0.04385
540.795	0.04363
541.136	0.04338
541.478	0.04325
541.819	0.04312
542.16	0.04289
542.502	0.04283
542.843	0.04259
543.184	0.04221
543.525	0.04193
543.866	0.04187
544.207	0.04162
544.548	0.04159
544.889	0.04124
545.23	0.04108
545.571	0.04066
545.911	0.04053
546.252	0.04054
546.593	0.04052
546.934	0.04037
547.274	0.04027
547.615	0.04005
547.955	0.03984
548.296	0.03961
548.636	0.03926
548.977	0.03898
549.317	0.03888
549.657	0.03884
549.997	0.03865
550.338	0.03868
550.678	0.03865
551.018	0.03851
551.358	0.03836
551.698	0.03814
552.038	0.03813
552.378	0.03791
552.718	0.03771
553.058	0.03744
553.398	0.03717
553.737	0.03685
554.077	0.03661
554.417	0.03667
554.756	0.03667
555.096	0.03643
555.435	0.03638
555.775	0.03645
556.114	0.03622
556.454	0.03621
556.793	0.03592
557.133	0.03575
557.472	0.03539
557.811	0.03521
558.15	0.03502
558.489	0.03468
558.829	0.03444
559.168	0.03434
559.507	0.03418
559.846	0.03419
560.184	0.03416
560.523	0.03395
560.862	0.03381
561.201	0.03371
561.54	0.03345
561.878	0.03325
562.217	0.03334
562.556	0.03297
562.894	0.03266
563.233	0.03257
563.571	0.03218
563.91	0.03208
564.248	0.03194
564.586	0.03179
564.925	0.03169
565.263	0.03144
565.601	0.03146
565.939	0.0314
566.277	0.03114
566.616	0.03106
566.954	0.03094
567.292	0.03086
567.63	0.03072
567.967	0.0307
568.305	0.03055
568.643	0.03045
568.981	0.03021
569.319	0.02992
569.656	0.03003
569.994	0.02996
570.331	0.02986
570.669	0.02998
571.006	0.02971
571.344	0.02956
571.681	0.02958
572.019	0.02938
572.356	0.02924
572.693	0.02917
573.03	0.02906
573.368	0.02895
573.705	0.02896
574.042	0.02887
574.379	0.02872
574.716	0.02862
575.053	0.02848
575.39	0.02841
575.727	0.02834
576.063	0.02825
576.4	0.02814
576.737	0.028
577.074	0.02782
577.41	0.0276
577.747	0.02731
578.083	0.0272
578.42	0.02724
578.756	0.02704
579.093	0.02701
579.429	0.02708
579.766	0.02698
580.102	0.02686
580.438	0.0268
580.774	0.02646
581.11	0.02635
581.446	0.02633
581.782	0.02616
582.119	0.026
582.454	0.02595
582.79	0.02571
583.126	0.02567
583.462	0.0256
583.798	0.02541
584.134	0.02544
584.469	0.02537
584.805	0.02528
585.141	0.0253
585.476	0.0251
585.812	0.02497
586.147	0.02484
586.482	0.02476
586.818	0.0247
587.153	0.02454
587.488	0.02448
587.824	0.02448
588.159	0.02423
588.494	0.02413
588.829	0.0241
589.164	0.024
589.499	0.02378
589.834	0.02369
590.169	0.02361
590.504	0.02358
590.839	0.02348
591.174	0.02329
591.508	0.02316
591.843	0.02314
592.178	0.023
592.512	0.02286
592.847	0.0228
593.181	0.02269
593.516	0.02248
593.85	0.02239
594.185	0.02234
594.519	0.0222
594.853	0.02217
595.187	0.02229
595.522	0.02216
595.856	0.02223
596.19	0.02234
596.524	0.02229
596.858	0.02232
597.192	0.02211
597.526	0.02193
597.86	0.02186
598.194	0.02185
598.527	0.02195
598.861	0.02187
599.195	0.02182
599.528	0.02178
599.862	0.02167
600.196	0.02157
600.529	0.02162
600.863	0.02145
601.196	0.02134
601.529	0.02136
601.863	0.02136
602.196	0.02119
602.529	0.02107
602.862	0.02081
603.196	0.02068
603.529	0.02073
603.862	0.02065
604.195	0.02063
604.528	0.02076
604.861	0.02071
605.193	0.02063
605.526	0.02046
605.859	0.02048
606.192	0.0204
606.524	0.02038
606.857	0.02046
607.19	0.02042
607.522	0.02034
607.855	0.02034
608.187	0.02039
608.52	0.0203
608.852	0.02017
609.184	0.02022
609.517	0.02016
609.849	0.02023
610.181	0.02009
610.513	0.0199
610.845	0.01981
611.177	0.01985
611.509	0.01971
611.841	0.01978
612.173	0.01981
612.505	0.01987
612.837	0.01973
613.169	0.01975
613.5	0.01958
613.832	0.01954
614.164	0.01962
614.495	0.01957
614.827	0.01965
615.158	0.01961
615.49	0.01958
615.821	0.0195
616.152	0.01928
616.484	0.01919
616.815	0.01904
617.146	0.01901
617.477	0.01902
617.808	0.01897
618.14	0.0189
618.471	0.0188
618.802	0.01866
619.133	0.01851
619.463	0.01821
619.794	0.01814
620.125	0.01806
620.456	0.01806
620.787	0.01798
621.117	0.01786
621.448	0.0177
621.778	0.01754
622.109	0.01753
622.439	0.01744
622.77	0.01735
623.1	0.01745
623.43	0.01748
623.761	0.01751
624.091	0.0174
624.421	0.01738
624.751	0.01732
625.081	0.01719
625.412	0.01713
625.742	0.01704
626.072	0.01703
626.401	0.01704
626.731	0.01682
627.061	0.01677
627.391	0.01676
627.721	0.01673
628.05	0.01665
628.38	0.01658
628.71	0.01647
629.039	0.01631
629.369	0.01618
629.698	0.01599
630.028	0.01584
630.357	0.01577
630.686	0.01567
631.015	0.01573
631.345	0.01552
631.674	0.0155
632.003	0.01554
632.332	0.01551
632.661	0.01545
632.99	0.0154
633.319	0.01543
633.648	0.01558
633.977	0.01547
634.306	0.01545
634.634	0.01546
634.963	0.01528
635.292	0.01532
635.62	0.01534
635.949	0.01528
636.277	0.0153
636.606	0.01544
636.934	0.01545
637.263	0.01545
637.591	0.01533
637.919	0.01523
638.248	0.01528
638.576	0.0152
638.904	0.01515
639.232	0.01515
639.56	0.01514
639.888	0.0151
640.216	0.01493
640.544	0.01491
640.872	0.01485
641.2	0.01483
641.528	0.01463
641.855	0.01478
642.183	0.01477
642.511	0.01483
642.838	0.0148
643.166	0.01484
643.493	0.01473
643.821	0.0147
644.148	0.01459
644.475	0.0148
644.803	0.01477
645.13	0.01469
645.457	0.01477
645.784	0.01461
646.112	0.01456
646.439	0.01452
646.766	0.01439
647.093	0.0145
647.42	0.01435
647.746	0.01445
648.073	0.01438
648.4	0.0144
648.727	0.01428
649.053	0.01421
649.38	0.01408
649.707	0.01407
650.033	0.01392
650.36	0.01406
650.686	0.01394
651.013	0.01386
651.339	0.01357
651.665	0.01351
651.992	0.01346
652.318	0.01332
652.644	0.01338
652.97	0.01335
653.296	0.01332
653.622	0.01333
653.948	0.0133
654.274	0.01323
654.6	0.01328
654.926	0.01324
655.252	0.01312
655.578	0.01309
655.903	0.01294
656.229	0.0129
656.555	0.01284
656.88	0.01268
657.206	0.01254
657.531	0.01264
657.857	0.01276
658.182	0.01288
658.507	0.01286
658.833	0.01291
659.158	0.01286
659.483	0.01279
659.808	0.0128
660.133	0.01286
660.458	0.01266
660.783	0.01267
661.108	0.01278
661.433	0.01263
661.758	0.0126
662.083	0.01264
662.408	0.01259
662.732	0.01281
663.057	0.01279
663.382	0.01273
663.706	0.01276
664.031	0.01265
664.355	0.01259
664.68	0.01264
665.004	0.0126
665.328	0.01256
665.653	0.01241
665.977	0.01244
666.301	0.01252
666.625	0.01258
666.949	0.01234
667.273	0.0125
667.597	0.01234
667.921	0.0123
668.245	0.01219
668.569	0.01211
668.893	0.01207
669.217	0.01213
669.54	0.01196
669.864	0.01186
670.188	0.01193
670.511	0.01201
670.835	0.01185
671.158	0.0118
671.482	0.01156
671.805	0.01153
672.128	0.0116
672.452	0.01161
672.775	0.01155
673.098	0.01136
673.421	0.01114
673.744	0.01124
674.068	0.01116
674.391	0.01122
674.714	0.01124
675.036	0.01132
675.359	0.01135
675.682	0.0114
676.005	0.01146
676.328	0.01148
676.65	0.01158
676.973	0.01159
677.295	0.01157
677.618	0.01167
677.94	0.01156
678.263	0.01165
678.585	0.01154
678.908	0.01142
679.23	0.0115
679.552	0.01155
679.874	0.01149
680.196	0.0116
680.519	0.01147
680.841	0.01156
681.163	0.01157
681.485	0.01159
681.807	0.01154
682.128	0.01144
682.45	0.01141
682.772	0.01122
683.094	0.01102
683.415	0.01088
683.737	0.01087
684.059	0.01081
684.38	0.01093
684.702	0.01093
685.023	0.01079
685.344	0.01073
685.666	0.0108
685.987	0.0107
686.308	0.01039
686.629	0.01049
686.95	0.01043
687.272	0.01045
687.593	0.01046
687.914	0.01043
688.235	0.01034
688.555	0.01024
688.876	0.01014
689.197	0.00993
689.518	0.01003
689.839	0.0101
690.159	0.01009
690.48	0.01013
690.8	0.01021
691.121	0.01001
691.441	0.01003
691.762	0.01012
692.082	0.01021
692.402	0.01022
692.723	0.01024
693.043	0.01052
693.363	0.01066
693.683	0.01053
694.003	0.01054
694.323	0.01043
694.643	0.01045
694.963	0.01038
695.283	0.0104
695.603	0.01042
695.923	0.01049
696.243	0.0104
696.562	0.01039
696.882	0.01049
697.202	0.01043
697.521	0.01038
697.841	0.01046
698.16	0.01049
698.479	0.01043
698.799	0.01037
699.118	0.01014
699.437	0.0101
699.757	0.00996
700.076	0.00977
700.395	0.00988
700.714	0.00999
701.033	0.01004
701.352	0.00991
701.671	0.00985
701.99	0.00988
702.308	0.01001
702.627	0.00996
702.946	0.01002
703.265	0.00999
703.583	0.00976
703.902	0.00974
704.22	0.00965
704.539	0.00964
704.857	0.00968
705.176	0.00982
705.494	0.0098
705.812	0.01002
706.131	0.01006
706.449	0.00992
706.767	0.00998
707.085	0.00989
707.403	0.00984
707.721	0.0097
708.039	0.00975
708.357	0.00985
708.675	0.0098
708.993	0.00961
709.31	0.00956
709.628	0.00944
709.946	0.00939
710.263	0.00948
710.581	0.00935
710.898	0.00926
711.216	0.00943
711.533	0.00936
711.851	0.00915
712.168	0.00918
712.485	0.00906
712.802	0.00897
713.12	0.00918
713.437	0.00914
713.754	0.00915
714.071	0.00896
714.388	0.00908
714.705	0.00905
715.022	0.00907
715.338	0.00904
715.655	0.00906
715.972	0.00911
716.289	0.0091
716.605	0.0092
716.922	0.00927
717.238	0.00934
717.555	0.00951
717.871	0.00922
718.188	0.00911
718.504	0.00919
718.82	0.00917
719.136	0.00906
719.453	0.00915
719.769	0.00892
720.085	0.00892
720.401	0.00888
720.717	0.00899
721.033	0.00901
721.349	0.009
721.665	0.00871
721.98	0.00859
722.296	0.00855
722.612	0.00857
722.927	0.0087
723.243	0.00857
723.559	0.00851
723.874	0.00859
724.19	0.00857
724.505	0.00859
724.82	0.00867
725.136	0.00849
725.451	0.00847
725.766	0.00851
726.081	0.00846
726.396	0.0087
726.711	0.00866
727.026	0.00855
727.341	0.00868
727.656	0.00861
727.971	0.00856
728.286	0.00878
728.601	0.00884
728.916	0.00914
729.23	0.00923
729.545	0.00923
729.859	0.00959
730.174	0.00949
730.488	0.00936
730.803	0.00938
731.117	0.00947
731.431	0.00938
731.746	0.00949
732.06	0.00951
732.374	0.00957
732.688	0.00951
733.002	0.00918
733.316	0.00912
733.63	0.00925
733.944	0.00919
734.258	0.00929
734.572	0.00933
734.886	0.00915
735.199	0.00923
735.513	0.00906
735.827	0.00887
736.14	0.00884
736.454	0.00861
736.767	0.00881
737.081	0.00865
737.394	0.00859
737.708	0.00862
738.021	0.00863
738.334	0.00858
738.647	0.00841
738.96	0.00836
739.273	0.00838
739.587	0.00848
739.9	0.00861
740.212	0.00868
740.525	0.00858
740.838	0.00859
741.151	0.00854
741.464	0.0085
741.776	0.00854
742.089	0.00865
742.402	0.00853
742.714	0.00852
743.027	0.00838
743.339	0.00826
743.651	0.00834
743.964	0.00827
744.276	0.00827
744.588	0.00824
744.901	0.008
745.213	0.00813
745.525	0.00819
745.837	0.00838
746.149	0.00854
746.461	0.00848
746.773	0.0084
747.085	0.00845
747.396	0.00828
747.708	0.00836
748.02	0.0084
748.331	0.00817
748.643	0.00808
748.955	0.0083
749.266	0.00826
749.577	0.00827
749.889	0.00811
750.2	0.00823
750.512	0.00829
750.823	0.00818
751.134	0.00806
751.445	0.00841
751.756	0.00846
752.067	0.00829
752.378	0.00798
752.689	0.00782
753	0.00767
753.311	0.00768
753.622	0.00767
753.932	0.00761
754.243	0.00747
754.554	0.00749
754.864	0.00771
755.175	0.00776
755.485	0.00771
755.796	0.00762
756.106	0.00763
756.417	0.00763
756.727	0.00751
757.037	0.00762
757.347	0.00749
757.658	0.00744
757.968	0.00739
758.278	0.00718
758.588	0.0074
758.898	0.00759
759.208	0.00774
759.517	0.00773
759.827	0.00782
760.137	0.00762
760.447	0.0076
760.756	0.00765
761.066	0.00768
761.375	0.00772
761.685	0.00768
761.994	0.00765
762.304	0.00759
762.613	0.00772
762.922	0.00783
763.232	0.00781
763.541	0.00763
763.85	0.00779
764.159	0.00801
764.468	0.00802
764.777	0.00807
765.086	0.00779
765.395	0.00756
765.704	0.00743
766.013	0.00748
766.321	0.00739
766.63	0.00752
766.939	0.00727
767.247	0.00708
767.556	0.00697
767.864	0.00684
768.173	0.00671
768.481	0.00689
768.789	0.00688
769.098	0.00664
769.406	0.00659
769.714	0.00621
770.022	0.0061
770.33	0.00595
770.638	0.006
770.946	0.00605
771.254	0.00637
771.562	0.00641
771.87	0.00639
772.178	0.00638
772.486	0.00633
772.793	0.00611
773.101	0.00598
773.408	0.00647
773.716	0.00685
774.023	0.0071
774.331	0.00715
774.638	0.00758
774.946	0.00734
775.253	0.00711
775.56	0.00716
775.867	0.00719
776.174	0.00753
776.481	0.00747
776.788	0.00749
777.095	0.00715
777.402	0.00728
777.709	0.00668
778.016	0.00651
778.323	0.00674
778.63	0.00661
778.936	0.00671
779.243	0.00658
779.549	0.00643
779.856	0.00621
780.162	0.00584
780.469	0.00588
780.775	0.00563
781.082	0.00514
781.388	0.00529
781.694	0.00566
782	0.00554
782.306	0.00547
782.612	0.00536
782.918	0.00569
783.224	0.00569
783.53	0.006
783.836	0.00549
784.142	0.00582
784.448	0.0059
784.753	0.00598
785.059	0.00617
785.365	0.00596
785.67	0.00631
785.976	0.00635
786.281	0.00639
786.586	0.0066
786.892	0.00646
787.197	0.00662
787.502	0.00653
787.808	0.0063
788.113	0.00622
788.418	0.00652
788.723	0.00637
789.028	0.0065
789.333	0.00645
789.638	0.00647
789.942	0.00635
790.247	0.0062
790.552	0.00653
790.857	0.00684
791.161	0.00661
791.466	0.00656
791.77	0.00656
792.075	0.00634
792.379	0.00644
792.684	0.00637
792.988	0.00598
793.292	0.00571
793.597	0.00575
793.901	0.0058
794.205	0.00569
794.509	0.00536
794.813	0.00502
795.117	0.0056
795.421	0.00564
795.725	0.00514
796.029	0.00514
796.332	0.00552
796.636	0.00583
796.94	0.00553
797.243	0.0053
797.547	0.00521
797.85	0.00493
798.154	0.00512
798.457	0.00513
798.761	0.00492
799.064	0.00487
799.367	0.00514
799.67	0.005
799.973	0.00468
800.277	0.00499
800.58	0.00464
800.883	0.00484
801.186	0.00484
801.488	0.00422
801.791	0.00393
802.094	0.00404
802.397	0.00415
802.699	0.00374
803.002	0.00361
803.305	0.00332
803.607	0.00318
803.91	0.00336
804.212	0.00359
804.515	0.00356
804.817	0.00396
805.119	0.00449
805.421	0.00421
805.724	0.00406
806.026	0.00431
806.328	0.0051
806.63	0.00458
806.932	0.0053
807.234	0.00547
807.535	0.0054
807.837	0.00509
808.139	0.00499
808.441	0.00515
808.742	0.00533
809.044	0.00529
809.346	0.00535
809.647	0.00538
809.948	0.00567
810.25	0.0059
810.551	0.00586
810.853	0.00561
811.154	0.00533
811.455	0.005
811.756	0.00538
812.057	0.00529
812.358	0.00567
812.659	0.00498
812.96	0.00466
813.261	0.0048
813.562	0.00428
813.863	0.00467
814.163	0.00513
814.464	0.00532
814.765	0.00577
815.065	0.00577
815.366	0.00588
815.666	0.00573
815.967	0.00571
816.267	0.00533
816.567	0.00474
816.868	0.00494
817.168	0.00545
817.468	0.00577
817.768	0.00551
818.068	0.00577
818.368	0.00625
818.668	0.00577
818.968	0.00631
819.268	0.00741
819.568	0.00688
819.867	0.00713
820.167	0.00763
820.467	0.00796
820.766	0.00782
821.066	0.00713
821.365	0.00648
821.665	0.00593
821.964	0.00602
822.263	0.00583
822.563	0.00578
822.862	0.00609
823.161	0.00546
823.46	0.0053
823.759	0.00482
824.058	0.00489
824.357	0.00397
824.656	0.0033
824.955	0.00348
825.254	0.0024
825.552	0.0017
825.851	0.00163
826.15	0.00165
826.448	0.00081
826.747	0.00064
827.045	0.00076
827.344	0.00092
827.642	0.00089
827.941	0.00141
828.239	0.00124
828.537	0.00159
828.835	0.00148
829.133	0.00134
829.432	0.00158
829.73	0.00115
830.028	0.00042
830.325	0.00021
830.623	0.00081
830.921	0.00104
831.219	0.00039
831.517	0.00086
831.814	0.00132
832.112	0.00141
832.409	0.00214
832.707	0.00212
833.004	0.00225
833.302	0.003
833.599	0.00251
833.896	0.00269
834.194	0.00309
834.491	0.00361
834.788	0.00365
835.085	0.00437
835.382	0.00375
835.679	0.00406
835.976	0.00342
836.273	0.00476
836.57	0.0055
836.866	0.00476
837.163	0.00571
837.46	0.00636
837.756	0.0069
838.053	0.00685
838.349	0.00717
838.646	0.00625
838.942	0.00582
839.239	0.00497
839.535	0.00452
839.831	0.00486
840.127	0.00608
840.423	0.00596
840.72	0.00553
841.016	0.00541
841.312	0.00545
841.607	0.00681
841.903	0.00552
842.199	0.00607
842.495	0.00583
842.791	0.00567
843.086	0.00625
843.382	0.00595
843.677	0.005
843.973	0.00552
844.268	0.00541
844.564	0.00443
844.859	0.00445
845.154	0.00539
845.45	0.00581
845.745	0.00554
846.04	0.00578
846.335	0.00572
846.63	0.00586
846.925	0.00595
847.22	0.00696
847.515	0.00485
847.81	0.00419
848.104	0.00526
848.399	0.00726
848.694	0.00495
848.988	0.00365
849.283	0.00478
849.578	0.00548
849.872	0.00716
850.166	0.00397
850.461	0.00285
850.755	0.0022
851.049	-0.00004
851.343	-0.00056
851.638	-0.00348
851.932	-0.00545
852.226	-0.00518
852.52	-0.00688
852.814	-0.0082
853.107	-0.0063
853.401	-0.00843
853.695	-0.00526
853.989	-0.00536
854.282	-0.00535
854.576	-0.00802
854.869	-0.00648
855.163	-0.00382
855.456	-0.00482
855.75	-0.00559
856.043	-0.00861
856.336	-0.01026
856.63	-0.00896
856.923	-0.00666
857.216	-0.00391
857.509	-0.00032
857.802	0.00263
858.095	0.006
858.388	0.00129
858.681	0.00133
858.974	0.00094
859.266	-0.00169
859.559	-0.00015
859.852	-0.00131
860.144	-0.00238
860.437	0.00101
860.729	0.00224
861.022	0.00017
861.314	0.00109
861.606	0.00117
861.899	0.00162
862.191	0.00714
862.483	0.00689
862.775	0.00689
863.067	0.00304
863.359	0.00657
863.651	0.00212
863.943	-0.00052
864.235	-0.00337
864.527	0.00126
864.819	-0.00133
865.11	-0.00119
865.402	0.00315
865.693	0.00534
865.985	0.00421
866.276	0.00813
866.568	0.00641
866.859	0.01361
867.151	0.01851
867.442	0.01868
867.733	0.01707
868.024	0.01272
868.315	0.01321
868.606	0.02166
868.897	0.02174
869.188	0.02605
869.479	0.02389
869.77	0.02676
870.061	0.03075
870.351	0.03421
870.642	0.03483
870.933	0.03872
871.223	0.04044
871.514	0.03631
871.804	0.03478
872.095	0.03961
872.385	0.0376
872.675	0.04064
