Data from 10 sec_Absorbance_11-52-29-175.txt Node
Date: Fri Jan 27 11:52:29 EST 2023
User: UV-vis
Spectrometer: FLMS04918
Trigger mode: 0
Integration Time (sec): 3.310000E-3
Scans to average: 10
Electric dark correction enabled: true
Nonlinearity correction enabled: false
Boxcar width: 10
XAxis mode: Wavelengths
Number of Pixels in Spectrum: 2048
>>>>>Begin Spectral Data<<<<<
179.23	0.20984
179.611	-0.1124
179.992	-0
180.373	-1.1882
180.754	-0.71196
181.134	-0
181.515	-0.40756
181.896	-0.33917
182.276	-0.24266
182.657	-0.37203
183.038	-0.75894
183.418	-0
183.799	2.10821
184.179	0.15128
184.56	0.19822
184.94	0.20158
185.32	0.20001
185.701	0.2034
186.081	0.2002
186.461	0.19562
186.842	0.19653
187.222	0.1978
187.602	0.19658
187.982	0.19304
188.362	0.19229
188.742	0.19263
189.122	0.19226
189.502	0.19201
189.882	0.19291
190.262	0.19077
190.642	0.19217
191.022	0.19332
191.402	0.19243
191.781	0.19345
192.161	0.192
192.541	0.19172
192.92	0.19101
193.3	0.19103
193.68	0.1893
194.059	0.18997
194.439	0.19222
194.818	0.19275
195.198	0.19074
195.577	0.19346
195.957	0.19523
196.336	0.19584
196.715	0.19677
197.094	0.19745
197.474	0.1979
197.853	0.19812
198.232	0.20091
198.611	0.20136
198.99	0.20237
199.369	0.20301
199.748	0.20316
200.127	0.20369
200.506	0.20422
200.885	0.20635
201.264	0.20717
201.643	0.20808
202.022	0.20901
202.401	0.20794
202.779	0.20707
203.158	0.20786
203.537	0.20662
203.915	0.2086
204.294	0.20847
204.673	0.20867
205.051	0.20872
205.43	0.20809
205.808	0.20783
206.187	0.20834
206.565	0.2067
206.943	0.20535
207.322	0.20603
207.7	0.20445
208.078	0.20649
208.456	0.20701
208.835	0.20482
209.213	0.2049
209.591	0.20542
209.969	0.20374
210.347	0.20509
210.725	0.20577
211.103	0.20555
211.481	0.20462
211.859	0.20402
212.237	0.20621
212.614	0.20587
212.992	0.20579
213.37	0.2072
213.748	0.2081
214.125	0.20615
214.503	0.20737
214.881	0.20772
215.258	0.20797
215.636	0.20897
216.013	0.20851
216.391	0.20823
216.768	0.20859
217.145	0.20753
217.523	0.20596
217.9	0.20752
218.277	0.20763
218.655	0.20836
219.032	0.20838
219.409	0.20998
219.786	0.21019
220.163	0.20981
220.54	0.2106
220.917	0.21081
221.294	0.20972
221.671	0.20853
222.048	0.21001
222.425	0.21118
222.802	0.21123
223.179	0.21044
223.556	0.20965
223.932	0.20993
224.309	0.21086
224.686	0.21257
225.062	0.21415
225.439	0.21606
225.815	0.21523
226.192	0.21446
226.568	0.2143
226.945	0.21372
227.321	0.21375
227.698	0.21346
228.074	0.21135
228.45	0.21086
228.827	0.21362
229.203	0.21611
229.579	0.21659
229.955	0.21708
230.331	0.21569
230.707	0.21631
231.083	0.21782
231.46	0.21888
231.835	0.21937
232.211	0.21906
232.587	0.21977
232.963	0.21922
233.339	0.21965
233.715	0.22078
234.091	0.22125
234.466	0.22072
234.842	0.2227
235.218	0.223
235.593	0.22226
235.969	0.22448
236.344	0.22544
236.72	0.22497
237.095	0.22388
237.471	0.22492
237.846	0.22464
238.222	0.2247
238.597	0.22644
238.972	0.22619
239.348	0.22592
239.723	0.22715
240.098	0.2285
240.473	0.22873
240.848	0.2289
241.223	0.2284
241.598	0.22808
241.973	0.23026
242.348	0.23111
242.723	0.23156
243.098	0.23276
243.473	0.23448
243.848	0.23499
244.223	0.23598
244.597	0.23478
244.972	0.23391
245.347	0.23335
245.721	0.23392
246.096	0.23547
246.47	0.23617
246.845	0.23696
247.219	0.23693
247.594	0.23776
247.968	0.23767
248.343	0.23766
248.717	0.23795
249.091	0.23991
249.466	0.24162
249.84	0.24056
250.214	0.24224
250.588	0.24312
250.962	0.24384
251.336	0.24339
251.71	0.24432
252.084	0.2451
252.458	0.2472
252.832	0.24869
253.206	0.2504
253.58	0.2508
253.954	0.25071
254.328	0.25009
254.702	0.25144
255.075	0.25235
255.449	0.25231
255.823	0.2534
256.196	0.2539
256.57	0.2553
256.943	0.25677
257.317	0.25618
257.69	0.2588
258.064	0.2582
258.437	0.259
258.81	0.25934
259.184	0.26157
259.557	0.26161
259.93	0.26193
260.303	0.26267
260.677	0.26368
261.05	0.264
261.423	0.26588
261.796	0.26717
262.169	0.26934
262.542	0.26836
262.915	0.26922
263.288	0.26899
263.661	0.26945
264.033	0.27147
264.406	0.27215
264.779	0.2704
265.152	0.27183
265.524	0.27136
265.897	0.27205
266.27	0.27277
266.642	0.27335
267.015	0.27306
267.387	0.27424
267.76	0.27543
268.132	0.27523
268.504	0.27572
268.877	0.27649
269.249	0.27641
269.621	0.277
269.994	0.27729
270.366	0.27863
270.738	0.28004
271.11	0.28053
271.482	0.28158
271.854	0.28149
272.226	0.28218
272.598	0.28441
272.97	0.28484
273.342	0.28514
273.714	0.28696
274.086	0.2886
274.458	0.28996
274.829	0.29162
275.201	0.29314
275.573	0.29318
275.944	0.29564
276.316	0.29777
276.688	0.30063
277.059	0.30266
277.431	0.30667
277.802	0.31159
278.173	0.31887
278.545	0.33067
278.916	0.34576
279.287	0.36428
279.659	0.38764
280.03	0.40996
280.401	0.42975
280.772	0.44604
281.143	0.45839
281.515	0.46639
281.886	0.46993
282.257	0.46869
282.628	0.4635
282.998	0.45556
283.369	0.44445
283.74	0.43137
284.111	0.41843
284.482	0.40478
284.853	0.39164
285.223	0.37864
285.594	0.36661
285.965	0.35548
286.335	0.34419
286.706	0.33317
287.076	0.32232
287.447	0.31154
287.817	0.30068
288.188	0.28978
288.558	0.27843
288.928	0.26621
289.299	0.25317
289.669	0.24002
290.039	0.22657
290.409	0.2135
290.779	0.20109
291.149	0.18977
291.52	0.17972
291.89	0.17062
292.26	0.16242
292.629	0.15498
292.999	0.14833
293.369	0.14212
293.739	0.13639
294.109	0.13137
294.479	0.12687
294.848	0.1226
295.218	0.11833
295.588	0.11411
295.957	0.10985
296.327	0.10561
296.696	0.10147
297.066	0.09743
297.435	0.09336
297.805	0.08933
298.174	0.08535
298.544	0.08135
298.913	0.07742
299.282	0.07356
299.651	0.06962
300.021	0.06588
300.39	0.06215
300.759	0.05865
301.128	0.05539
301.497	0.05223
301.866	0.04933
302.235	0.04648
302.604	0.04387
302.973	0.04153
303.342	0.03917
303.71	0.03672
304.079	0.0343
304.448	0.03199
304.817	0.02971
305.185	0.02729
305.554	0.02529
305.923	0.02349
306.291	0.02184
306.66	0.02038
307.028	0.01895
307.397	0.01763
307.765	0.01633
308.133	0.01512
308.502	0.01377
308.87	0.01232
309.238	0.01078
309.606	0.00908
309.975	0.0074
310.343	0.00571
310.711	0.00407
311.079	0.00272
311.447	0.00168
311.815	0.00084
312.183	0.00027
312.551	-0.00001
312.919	-0.00003
313.286	-0.00003
313.654	0.00008
314.022	0.00044
314.39	0.00083
314.757	0.00121
315.125	0.0015
315.492	0.00171
315.86	0.00172
316.228	0.00172
316.595	0.00172
316.962	0.00172
317.33	0.00172
317.697	0.00172
318.065	0.00172
318.432	0.00172
318.799	0.00172
319.166	0.00172
319.534	0.00172
319.901	0.00172
320.268	0.00172
320.635	0.00172
321.002	0.00172
321.369	0.00161
321.736	0.00125
322.103	0.00087
322.47	0.00048
322.836	0.00019
323.203	-0.00002
323.57	-0.00003
323.937	-0.00003
324.303	-0.00003
324.67	-0.00003
325.037	-0.00003
325.403	-0.00003
325.77	-0.00003
326.136	-0.00003
326.503	-0.00003
326.869	-0.00003
327.235	-0.00003
327.602	-0.00003
327.968	-0.00003
328.334	-0.00003
328.7	-0.00003
329.067	-0.00003
329.433	-0.00003
329.799	-0.00003
330.165	-0.00003
330.531	-0.00003
330.897	-0.00003
331.263	-0.00003
331.629	-0.00003
331.995	-0.00003
332.36	-0.00003
332.726	-0.00003
333.092	-0.00003
333.458	0.00002
333.823	0.00002
334.189	0.00013
334.554	0.0002
334.92	0.0003
335.286	0.00056
335.651	0.00087
336.016	0.00125
336.382	0.0017
336.747	0.00213
337.113	0.00258
337.478	0.00301
337.843	0.00357
338.208	0.00421
338.573	0.00489
338.939	0.00577
339.304	0.00674
339.669	0.00782
340.034	0.00893
340.399	0.01027
340.764	0.01159
341.129	0.01305
341.493	0.01459
341.858	0.01612
342.223	0.01787
342.588	0.01961
342.952	0.02138
343.317	0.0232
343.682	0.02491
344.046	0.02664
344.411	0.02856
344.775	0.03043
345.14	0.03237
345.504	0.03434
345.869	0.03618
346.233	0.03799
346.597	0.03957
346.962	0.04116
347.326	0.04266
347.69	0.04417
348.054	0.04536
348.418	0.04667
348.782	0.04785
349.146	0.04897
349.51	0.0501
349.874	0.05119
350.238	0.05239
350.602	0.05356
350.966	0.05474
351.33	0.05607
351.693	0.05735
352.057	0.05865
352.421	0.06021
352.784	0.062
353.148	0.06372
353.512	0.06571
353.875	0.06776
354.239	0.07007
354.602	0.07245
354.966	0.07499
355.329	0.07788
355.692	0.08104
356.056	0.08436
356.419	0.08793
356.782	0.09179
357.145	0.09586
357.508	0.09999
357.871	0.1043
358.234	0.10869
358.597	0.11326
358.96	0.11775
359.323	0.12252
359.686	0.12718
360.049	0.13189
360.412	0.13638
360.775	0.14087
361.137	0.14514
361.5	0.14943
361.863	0.15365
362.225	0.15781
362.588	0.16185
362.951	0.16554
363.313	0.16921
363.675	0.17269
364.038	0.17636
364.4	0.18002
364.763	0.18368
365.125	0.18751
365.487	0.19136
365.849	0.19553
366.212	0.19963
366.574	0.20407
366.936	0.20857
367.298	0.21334
367.66	0.21779
368.022	0.2223
368.384	0.22693
368.746	0.23181
369.108	0.2367
369.469	0.24166
369.831	0.24657
370.193	0.25157
370.555	0.25662
370.916	0.26181
371.278	0.26701
371.64	0.27172
372.001	0.27663
372.363	0.28144
372.724	0.28636
373.086	0.29113
373.447	0.29557
373.808	0.29998
374.17	0.30419
374.531	0.30816
374.892	0.31194
375.253	0.31617
375.615	0.32059
375.976	0.32523
376.337	0.33041
376.698	0.336
377.059	0.34161
377.42	0.34787
377.781	0.35473
378.141	0.36194
378.502	0.36876
378.863	0.37594
379.224	0.38375
379.585	0.39126
379.945	0.39888
380.306	0.40637
380.666	0.41395
381.027	0.42163
381.388	0.42941
381.748	0.43761
382.108	0.44561
382.469	0.45396
382.829	0.46221
383.19	0.47036
383.55	0.47837
383.91	0.48544
384.27	0.49198
384.63	0.49856
384.991	0.50486
385.351	0.5108
385.711	0.51717
386.071	0.52432
386.431	0.53131
386.791	0.5381
387.15	0.54523
387.51	0.55226
387.87	0.55892
388.23	0.56548
388.589	0.57164
388.949	0.57751
389.309	0.58356
389.668	0.59056
390.028	0.59795
390.387	0.6059
390.747	0.61463
391.106	0.62389
391.466	0.63415
391.825	0.64555
392.184	0.65744
392.544	0.66948
392.903	0.68207
393.262	0.69374
393.621	0.70554
393.98	0.71744
394.339	0.72929
394.698	0.74095
395.057	0.7531
395.416	0.76626
395.775	0.78035
396.134	0.79559
396.493	0.81196
396.852	0.82887
397.211	0.84551
397.569	0.86192
397.928	0.8784
398.287	0.89455
398.645	0.9105
399.004	0.9263
399.362	0.94159
399.721	0.95686
400.079	0.97193
400.438	0.98602
400.796	1.00089
401.154	1.01557
401.512	1.0311
401.871	1.04631
402.229	1.06231
402.587	1.07855
402.945	1.09433
403.303	1.10969
403.661	1.12482
404.019	1.14004
404.377	1.1537
404.735	1.16696
405.093	1.17969
405.451	1.19195
405.808	1.20385
406.166	1.21564
406.524	1.22715
406.882	1.23859
407.239	1.25022
407.597	1.26182
407.954	1.27395
408.312	1.28629
408.669	1.29896
409.027	1.3112
409.384	1.32469
409.741	1.33764
410.099	1.35023
410.456	1.36182
410.813	1.37307
411.17	1.38437
411.527	1.395
411.884	1.40647
412.242	1.41905
412.599	1.43118
412.956	1.44301
413.312	1.455
413.669	1.46723
414.026	1.4791
414.383	1.4911
414.74	1.50219
415.096	1.5138
415.453	1.52462
415.81	1.53558
416.166	1.54674
416.523	1.55825
416.879	1.56889
417.236	1.57913
417.592	1.58806
417.949	1.5977
418.305	1.6067
418.661	1.61467
419.018	1.62192
419.374	1.62898
419.73	1.63516
420.086	1.64144
420.442	1.6477
420.798	1.65273
421.154	1.6565
421.51	1.65996
421.866	1.66234
422.222	1.66435
422.578	1.66498
422.934	1.66558
423.29	1.66467
423.646	1.66315
424.001	1.66017
424.357	1.65654
424.713	1.65299
425.068	1.64929
425.424	1.64546
425.779	1.6401
426.135	1.63475
426.49	1.62844
426.845	1.62023
427.201	1.61229
427.556	1.6025
427.911	1.59217
428.266	1.58281
428.622	1.57238
428.977	1.56117
429.332	1.55166
429.687	1.5419
430.042	1.53267
430.397	1.5237
430.752	1.51578
431.107	1.5077
431.461	1.50026
431.816	1.49345
432.171	1.4864
432.526	1.47815
432.88	1.46975
433.235	1.46147
433.59	1.45243
433.944	1.44385
434.299	1.4347
434.653	1.4252
435.008	1.4162
435.362	1.40757
435.716	1.39808
436.071	1.38888
436.425	1.38045
436.779	1.36997
437.133	1.35963
437.487	1.34951
437.841	1.33851
438.195	1.3273
438.549	1.31522
438.903	1.30336
439.257	1.2909
439.611	1.27759
439.965	1.26499
440.319	1.25192
440.673	1.23876
441.026	1.22522
441.38	1.21128
441.734	1.1982
442.087	1.18436
442.441	1.17071
442.794	1.15726
443.148	1.14411
443.501	1.13141
443.855	1.11837
444.208	1.10569
444.561	1.09314
444.915	1.08035
445.268	1.06784
445.621	1.05557
445.974	1.04354
446.327	1.03149
446.68	1.01972
447.033	1.00816
447.386	0.99645
447.739	0.98542
448.092	0.97406
448.445	0.96324
448.798	0.95238
449.15	0.94107
449.503	0.93068
449.856	0.92031
450.209	0.90959
450.561	0.89875
450.914	0.88868
451.266	0.87843
451.619	0.86838
451.971	0.85808
452.323	0.84783
452.676	0.83742
453.028	0.82739
453.38	0.81729
453.733	0.80706
454.085	0.79679
454.437	0.7865
454.789	0.7768
455.141	0.76684
455.493	0.75715
455.845	0.74735
456.197	0.73782
456.549	0.7287
456.901	0.71899
457.253	0.70992
457.604	0.7007
457.956	0.69187
458.308	0.68274
458.659	0.67381
459.011	0.66508
459.362	0.6564
459.714	0.64796
460.065	0.63995
460.417	0.63181
460.768	0.62391
461.12	0.61593
461.471	0.60813
461.822	0.60077
462.173	0.5933
462.525	0.58579
462.876	0.57867
463.227	0.57141
463.578	0.56423
463.929	0.55727
464.28	0.55064
464.631	0.54347
464.982	0.53689
465.332	0.53047
465.683	0.52411
466.034	0.51793
466.385	0.51165
466.735	0.5056
467.086	0.49948
467.437	0.49327
467.787	0.48759
468.138	0.48194
468.488	0.47627
468.839	0.47058
469.189	0.46493
469.539	0.4594
469.89	0.45411
470.24	0.44872
470.59	0.44373
470.94	0.43858
471.29	0.43366
471.64	0.42878
471.99	0.42398
472.34	0.41919
472.69	0.41429
473.04	0.40953
473.39	0.4049
473.74	0.4005
474.09	0.39615
474.439	0.3918
474.789	0.38764
475.139	0.38342
475.488	0.37915
475.838	0.37522
476.188	0.37144
476.537	0.36763
476.886	0.36386
477.236	0.36
477.585	0.35643
477.935	0.35274
478.284	0.34916
478.633	0.34549
478.982	0.34194
479.331	0.33858
479.68	0.33518
480.03	0.33195
480.379	0.3288
480.728	0.32576
481.076	0.32271
481.425	0.31954
481.774	0.31656
482.123	0.31343
482.472	0.31035
482.821	0.30744
483.169	0.30434
483.518	0.30156
483.866	0.29879
484.215	0.29596
484.563	0.29331
484.912	0.29057
485.26	0.28789
485.609	0.28536
485.957	0.28293
486.305	0.28042
486.654	0.27785
487.002	0.27541
487.35	0.2731
487.698	0.27077
488.046	0.26839
488.394	0.26599
488.742	0.26381
489.09	0.26162
489.438	0.25959
489.786	0.25736
490.134	0.25508
490.482	0.25302
490.829	0.25087
491.177	0.24878
491.525	0.24696
491.872	0.24492
492.22	0.24299
492.567	0.24114
492.915	0.23912
493.262	0.23716
493.61	0.23529
493.957	0.23348
494.304	0.23161
494.652	0.22982
494.999	0.22801
495.346	0.22632
495.693	0.22476
496.04	0.2231
496.387	0.2215
496.734	0.21984
497.081	0.21837
497.428	0.21676
497.775	0.2153
498.122	0.21379
498.469	0.21236
498.816	0.2108
499.162	0.20933
499.509	0.20797
499.856	0.20649
500.202	0.2053
500.549	0.2039
500.895	0.2027
501.242	0.20134
501.588	0.20015
501.935	0.19898
502.281	0.19778
502.627	0.19649
502.973	0.19511
503.32	0.19396
503.666	0.19272
504.012	0.19148
504.358	0.19027
504.704	0.18925
505.05	0.18812
505.396	0.18698
505.742	0.18578
506.088	0.18466
506.433	0.18367
506.779	0.18251
507.125	0.18147
507.471	0.18036
507.816	0.17933
508.162	0.1782
508.507	0.17723
508.853	0.17611
509.198	0.17503
509.544	0.17396
509.889	0.17301
510.234	0.17214
510.58	0.17095
510.925	0.16991
511.27	0.16895
511.615	0.16798
511.96	0.16698
512.306	0.16602
512.651	0.16519
512.996	0.16434
513.341	0.16337
513.685	0.16239
514.03	0.16146
514.375	0.16059
514.72	0.15964
515.065	0.1588
515.409	0.15795
515.754	0.15702
516.099	0.15612
516.443	0.15518
516.788	0.15422
517.132	0.15329
517.476	0.15228
517.821	0.1515
518.165	0.15061
518.51	0.14966
518.854	0.14875
519.198	0.14781
519.542	0.147
519.886	0.14599
520.23	0.14511
520.574	0.1442
520.918	0.14326
521.262	0.14241
521.606	0.14143
521.95	0.14054
522.294	0.13965
522.638	0.13872
522.981	0.13786
523.325	0.13706
523.669	0.13609
524.012	0.13513
524.356	0.13428
524.699	0.13342
525.043	0.13258
525.386	0.13165
525.73	0.13082
526.073	0.13002
526.416	0.1292
526.76	0.12825
527.103	0.12736
527.446	0.12644
527.789	0.12561
528.132	0.12484
528.475	0.12404
528.818	0.1232
529.161	0.1224
529.504	0.12163
529.847	0.12082
530.19	0.12003
530.532	0.11923
530.875	0.11861
531.218	0.11791
531.56	0.11714
531.903	0.11647
532.246	0.11572
532.588	0.11512
532.93	0.1145
533.273	0.11373
533.615	0.11308
533.958	0.11245
534.3	0.11189
534.642	0.11128
534.984	0.11066
535.326	0.11005
535.669	0.10935
536.011	0.1088
536.353	0.10815
536.695	0.1075
537.037	0.10695
537.378	0.10643
537.72	0.10584
538.062	0.10523
538.404	0.10474
538.746	0.1042
539.087	0.10357
539.429	0.103
539.77	0.10246
540.112	0.1018
540.454	0.10133
540.795	0.10069
541.136	0.10009
541.478	0.09952
541.819	0.09892
542.16	0.09835
542.502	0.09776
542.843	0.09721
543.184	0.09655
543.525	0.09597
543.866	0.09538
544.207	0.09483
544.548	0.09417
544.889	0.09347
545.23	0.09282
545.571	0.09221
545.911	0.09162
546.252	0.09109
546.593	0.09045
546.934	0.08974
547.274	0.08913
547.615	0.08845
547.955	0.08794
548.296	0.08728
548.636	0.08659
548.977	0.08593
549.317	0.08526
549.657	0.08464
549.997	0.08401
550.338	0.08341
550.678	0.08285
551.018	0.08211
551.358	0.08138
551.698	0.08075
552.038	0.08016
552.378	0.07959
552.718	0.07891
553.058	0.07829
553.398	0.07759
553.737	0.07692
554.077	0.07623
554.417	0.07559
554.756	0.07486
555.096	0.07412
555.435	0.07346
555.775	0.07277
556.114	0.07215
556.454	0.07148
556.793	0.07076
557.133	0.07003
557.472	0.06927
557.811	0.06854
558.15	0.06794
558.489	0.06729
558.829	0.0665
559.168	0.06581
559.507	0.06504
559.846	0.06417
560.184	0.06337
560.523	0.0626
560.862	0.06188
561.201	0.06116
561.54	0.06044
561.878	0.05984
562.217	0.05908
562.556	0.05831
562.894	0.05762
563.233	0.05686
563.571	0.05615
563.91	0.05543
564.248	0.05476
564.586	0.05402
564.925	0.05331
565.263	0.05256
565.601	0.05183
565.939	0.05116
566.277	0.05046
566.616	0.04981
566.954	0.04923
567.292	0.04855
567.63	0.04789
567.967	0.04726
568.305	0.04661
568.643	0.04598
568.981	0.04529
569.319	0.04468
569.656	0.04415
569.994	0.04354
570.331	0.04298
570.669	0.04237
571.006	0.04176
571.344	0.04124
571.681	0.04081
572.019	0.04028
572.356	0.03983
572.693	0.03934
573.03	0.0389
573.368	0.03843
573.705	0.03797
574.042	0.03758
574.379	0.0372
574.716	0.03677
575.053	0.03636
575.39	0.03599
575.727	0.03565
576.063	0.0353
576.4	0.03503
576.737	0.03473
577.074	0.03443
577.41	0.03409
577.747	0.03381
578.083	0.03358
578.42	0.03324
578.756	0.03297
579.093	0.0327
579.429	0.03238
579.766	0.03209
580.102	0.03181
580.438	0.03162
580.774	0.03141
581.11	0.03119
581.446	0.03093
581.782	0.03077
582.119	0.03062
582.454	0.03045
582.79	0.03025
583.126	0.03004
583.462	0.02985
583.798	0.02966
584.134	0.0295
584.469	0.02937
584.805	0.02929
585.141	0.0291
585.476	0.02906
585.812	0.02893
586.147	0.02884
586.482	0.02877
586.818	0.02873
587.153	0.02862
587.488	0.02861
587.824	0.02855
588.159	0.02844
588.494	0.02845
588.829	0.02834
589.164	0.02821
589.499	0.02812
589.834	0.02808
590.169	0.02804
590.504	0.02796
590.839	0.02794
591.174	0.02786
591.508	0.02777
591.843	0.02773
592.178	0.02772
592.512	0.0275
592.847	0.02743
593.181	0.02735
593.516	0.0273
593.85	0.0272
594.185	0.02718
594.519	0.02706
594.853	0.02699
595.187	0.02697
595.522	0.02683
595.856	0.02682
596.19	0.02679
596.524	0.02676
596.858	0.02667
597.192	0.02659
597.526	0.02649
597.86	0.02638
598.194	0.02633
598.527	0.02621
598.861	0.02611
599.195	0.02597
599.528	0.02596
599.862	0.02591
600.196	0.02581
600.529	0.02574
600.863	0.02573
601.196	0.02565
601.529	0.02556
601.863	0.02548
602.196	0.02543
602.529	0.02539
602.862	0.02525
603.196	0.02515
603.529	0.02502
603.862	0.02491
604.195	0.02488
604.528	0.02485
604.861	0.02473
605.193	0.02471
605.526	0.02469
605.859	0.02455
606.192	0.02451
606.524	0.02444
606.857	0.02439
607.19	0.02425
607.522	0.02416
607.855	0.02399
608.187	0.02388
608.52	0.02377
608.852	0.02356
609.184	0.02337
609.517	0.0232
609.849	0.02314
610.181	0.02299
610.513	0.02293
610.845	0.02277
611.177	0.02256
611.509	0.0224
611.841	0.02233
612.173	0.02217
612.505	0.02199
612.837	0.02191
613.169	0.02176
613.5	0.02164
613.832	0.02144
614.164	0.02142
614.495	0.02132
614.827	0.02123
615.158	0.02112
615.49	0.02101
615.821	0.02092
616.152	0.02086
616.484	0.02075
616.815	0.02067
617.146	0.02053
617.477	0.02038
617.808	0.02022
618.14	0.02017
618.471	0.02007
618.802	0.01996
619.133	0.0198
619.463	0.01973
619.794	0.01968
620.125	0.01964
620.456	0.01957
620.787	0.0195
621.117	0.01931
621.448	0.01913
621.778	0.01898
622.109	0.01886
622.439	0.01871
622.77	0.01862
623.1	0.01842
623.43	0.01836
623.761	0.0182
624.091	0.01808
624.421	0.01799
624.751	0.01794
625.081	0.01773
625.412	0.01759
625.742	0.0174
626.072	0.01731
626.401	0.01714
626.731	0.0169
627.061	0.01674
627.391	0.01656
627.721	0.01631
628.05	0.01618
628.38	0.01606
628.71	0.01592
629.039	0.01576
629.369	0.01561
629.698	0.01544
630.028	0.01535
630.357	0.01518
630.686	0.01507
631.015	0.01495
631.345	0.01482
631.674	0.0147
632.003	0.01466
632.332	0.01454
632.661	0.01444
632.99	0.01429
633.319	0.01426
633.648	0.01413
633.977	0.01399
634.306	0.01388
634.634	0.01387
634.963	0.01381
635.292	0.01374
635.62	0.01366
635.949	0.01359
636.277	0.01353
636.606	0.0135
636.934	0.01344
637.263	0.01338
637.591	0.01331
637.919	0.01328
638.248	0.01322
638.576	0.01317
638.904	0.01309
639.232	0.01307
639.56	0.01307
639.888	0.01304
640.216	0.01299
640.544	0.01304
640.872	0.013
641.2	0.01297
641.528	0.01298
641.855	0.01298
642.183	0.01294
642.511	0.01298
642.838	0.01301
643.166	0.01304
643.493	0.01301
643.821	0.01304
644.148	0.01309
644.475	0.01308
644.803	0.01312
645.13	0.01309
645.457	0.01311
645.784	0.01309
646.112	0.01311
646.439	0.01307
646.766	0.01311
647.093	0.0131
647.42	0.01312
647.746	0.01317
648.073	0.0132
648.4	0.01326
648.727	0.01324
649.053	0.01327
649.38	0.01313
649.707	0.01313
650.033	0.01313
650.36	0.01318
650.686	0.01311
651.013	0.01306
651.339	0.01306
651.665	0.01313
651.992	0.01313
652.318	0.01315
652.644	0.01318
652.97	0.01311
653.296	0.01314
653.622	0.0131
653.948	0.01311
654.274	0.01308
654.6	0.01308
654.926	0.01309
655.252	0.01303
655.578	0.01308
655.903	0.01307
656.229	0.01317
656.555	0.01314
656.88	0.0132
657.206	0.01318
657.531	0.01322
657.857	0.01328
658.182	0.01332
658.507	0.01318
658.833	0.01322
659.158	0.01315
659.483	0.01317
659.808	0.01329
660.133	0.01323
660.458	0.0133
660.783	0.01324
661.108	0.01323
661.433	0.01322
661.758	0.01322
662.083	0.01314
662.408	0.01302
662.732	0.01303
663.057	0.01302
663.382	0.01305
663.706	0.01302
664.031	0.01293
664.355	0.01295
664.68	0.01282
665.004	0.01285
665.328	0.01295
665.653	0.01286
665.977	0.01285
666.301	0.0128
666.625	0.01269
666.949	0.01275
667.273	0.01268
667.597	0.01266
667.921	0.01266
668.245	0.01264
668.569	0.01263
668.893	0.01271
669.217	0.01272
669.54	0.01268
669.864	0.01271
670.188	0.01272
670.511	0.01262
670.835	0.0127
671.158	0.01272
671.482	0.01284
671.805	0.01275
672.128	0.01266
672.452	0.01274
672.775	0.01274
673.098	0.01274
673.421	0.01273
673.744	0.01259
674.068	0.01258
674.391	0.01263
674.714	0.01263
675.036	0.0126
675.359	0.01256
675.682	0.01247
676.005	0.01247
676.328	0.01241
676.65	0.01236
676.973	0.01227
677.295	0.01229
677.618	0.01221
677.94	0.01209
678.263	0.01194
678.585	0.01204
678.908	0.01205
679.23	0.01201
679.552	0.01201
679.874	0.01195
680.196	0.01192
680.519	0.01191
680.841	0.01186
681.163	0.01183
681.485	0.01169
681.807	0.0116
682.128	0.0115
682.45	0.01149
682.772	0.01143
683.094	0.01141
683.415	0.01141
683.737	0.01137
684.059	0.01126
684.38	0.01124
684.702	0.01119
685.023	0.01124
685.344	0.01105
685.666	0.01099
685.987	0.01094
686.308	0.01097
686.629	0.01097
686.95	0.01102
687.272	0.01106
687.593	0.01107
687.914	0.01103
688.235	0.01105
688.555	0.01115
688.876	0.0112
689.197	0.01113
689.518	0.01109
689.839	0.01101
690.159	0.01088
690.48	0.01091
690.8	0.01092
691.121	0.01092
691.441	0.01086
691.762	0.01088
692.082	0.01086
692.402	0.01084
692.723	0.01082
693.043	0.01067
693.363	0.0106
693.683	0.01052
694.003	0.01038
694.323	0.01031
694.643	0.01031
694.963	0.0103
695.283	0.01017
695.603	0.01021
695.923	0.01016
696.243	0.01012
696.562	0.01017
696.882	0.01012
697.202	0.00999
697.521	0.00993
697.841	0.00989
698.16	0.00994
698.479	0.00981
698.799	0.00975
699.118	0.00969
699.437	0.00964
699.757	0.00963
700.076	0.0096
700.395	0.00953
700.714	0.00943
701.033	0.00945
701.352	0.00936
701.671	0.00933
701.99	0.00927
702.308	0.0091
702.627	0.00911
702.946	0.00911
703.265	0.00902
703.583	0.00905
703.902	0.00905
704.22	0.00904
704.539	0.00905
704.857	0.00898
705.176	0.00897
705.494	0.00897
705.812	0.009
706.131	0.00903
706.449	0.00909
706.767	0.00909
707.085	0.00905
707.403	0.00915
707.721	0.0091
708.039	0.00907
708.357	0.00902
708.675	0.00905
708.993	0.00907
709.31	0.00899
709.628	0.00902
709.946	0.00908
710.263	0.00909
710.581	0.00903
710.898	0.00898
711.216	0.00893
711.533	0.00888
711.851	0.00885
712.168	0.00872
712.485	0.00852
712.802	0.00842
713.12	0.00831
713.437	0.00826
713.754	0.0083
714.071	0.00819
714.388	0.00816
714.705	0.00808
715.022	0.00803
715.338	0.00803
715.655	0.00794
715.972	0.00795
716.289	0.00776
716.605	0.00767
716.922	0.0076
717.238	0.00766
717.555	0.00766
717.871	0.00754
718.188	0.00747
718.504	0.00744
718.82	0.0075
719.136	0.00755
719.453	0.00754
719.769	0.00747
720.085	0.0075
720.401	0.00741
720.717	0.0075
721.033	0.00739
721.349	0.00748
721.665	0.00743
721.98	0.00732
722.296	0.00735
722.612	0.00728
722.927	0.00728
723.243	0.00723
723.559	0.00711
723.874	0.00702
724.19	0.00694
724.505	0.00695
724.82	0.00697
725.136	0.00706
725.451	0.00704
725.766	0.00693
726.081	0.00691
726.396	0.00686
726.711	0.00678
727.026	0.00681
727.341	0.00682
727.656	0.00686
727.971	0.00664
728.286	0.00669
728.601	0.00672
728.916	0.00671
729.23	0.0067
729.545	0.00682
729.859	0.00671
730.174	0.00678
730.488	0.00679
730.803	0.0068
731.117	0.00679
731.431	0.00675
731.746	0.00656
732.06	0.00643
732.374	0.00649
732.688	0.0064
733.002	0.00652
733.316	0.00649
733.63	0.00645
733.944	0.00629
734.258	0.00628
734.572	0.00629
734.886	0.00628
735.199	0.00624
735.513	0.0062
735.827	0.00618
736.14	0.00611
736.454	0.00621
736.767	0.00629
737.081	0.00617
737.394	0.00606
737.708	0.00604
738.021	0.00596
738.334	0.00603
738.647	0.00617
738.96	0.00617
739.273	0.00616
739.587	0.00607
739.9	0.00603
740.212	0.00594
740.525	0.00608
740.838	0.00605
741.151	0.00609
741.464	0.00603
741.776	0.00601
742.089	0.00587
742.402	0.00584
742.714	0.00575
743.027	0.00564
743.339	0.00555
743.651	0.00556
743.964	0.0057
744.276	0.00568
744.588	0.00583
744.901	0.00572
745.213	0.00572
745.525	0.00575
745.837	0.00575
746.149	0.00575
746.461	0.00571
746.773	0.00562
747.085	0.00535
747.396	0.00536
747.708	0.00533
748.02	0.00521
748.331	0.00523
748.643	0.00512
748.955	0.00515
749.266	0.00514
749.577	0.00511
749.889	0.00514
750.2	0.00515
750.512	0.00509
750.823	0.00507
751.134	0.00503
751.445	0.00511
751.756	0.00491
752.067	0.00495
752.378	0.00489
752.689	0.00479
753	0.00479
753.311	0.00505
753.622	0.00526
753.932	0.00518
754.243	0.00523
754.554	0.00528
754.864	0.00527
755.175	0.00551
755.485	0.00564
755.796	0.00578
756.106	0.00596
756.417	0.00596
756.727	0.00606
757.037	0.00588
757.347	0.00574
757.658	0.00571
757.968	0.0058
758.278	0.0059
758.588	0.00581
758.898	0.00589
759.208	0.0059
759.517	0.00588
759.827	0.00556
760.137	0.00536
760.447	0.00521
760.756	0.00514
761.066	0.00505
761.375	0.00511
761.685	0.00515
761.994	0.00476
762.304	0.00464
762.613	0.00451
762.922	0.0043
763.232	0.00414
763.541	0.00418
763.85	0.00419
764.159	0.00405
764.468	0.00377
764.777	0.00372
765.086	0.00358
765.395	0.00349
765.704	0.00349
766.013	0.00346
766.321	0.00354
766.63	0.00368
766.939	0.0038
767.247	0.0038
767.556	0.00379
767.864	0.00355
768.173	0.00352
768.481	0.00379
768.789	0.00383
769.098	0.00393
769.406	0.00405
769.714	0.00418
770.022	0.0043
770.33	0.0044
770.638	0.00458
770.946	0.00449
771.254	0.00442
771.562	0.0044
771.87	0.00434
772.178	0.00441
772.486	0.00453
772.793	0.00437
773.101	0.00426
773.408	0.0043
773.716	0.00422
774.023	0.00432
774.331	0.00434
774.638	0.00424
774.946	0.00424
775.253	0.00404
775.56	0.00397
775.867	0.0038
776.174	0.00366
776.481	0.00363
776.788	0.00363
777.095	0.00345
777.402	0.00355
777.709	0.00361
778.016	0.00386
778.323	0.00392
778.63	0.00368
778.936	0.00362
779.243	0.00387
779.549	0.00393
779.856	0.00377
780.162	0.00389
780.469	0.00381
780.775	0.00386
781.082	0.0038
781.388	0.00361
781.694	0.00354
782	0.00349
782.306	0.00356
782.612	0.00347
782.918	0.00334
783.224	0.00317
783.53	0.00321
783.836	0.00313
784.142	0.00301
784.448	0.00275
784.753	0.0027
785.059	0.00272
785.365	0.00264
785.67	0.00252
785.976	0.00248
786.281	0.00272
786.586	0.00254
786.892	0.00257
787.197	0.0024
787.502	0.00226
787.808	0.00232
788.113	0.0024
788.418	0.0023
788.723	0.00231
789.028	0.00258
789.333	0.0027
789.638	0.00272
789.942	0.00274
790.247	0.00282
790.552	0.00285
790.857	0.00284
791.161	0.00279
791.466	0.00289
791.77	0.00298
792.075	0.003
792.379	0.00302
792.684	0.00306
792.988	0.00328
793.292	0.00346
793.597	0.00353
793.901	0.0038
794.205	0.00371
794.509	0.00362
794.813	0.00365
795.117	0.0036
795.421	0.00341
795.725	0.00339
796.029	0.00333
796.332	0.00351
796.636	0.00351
796.94	0.0035
797.243	0.00327
797.547	0.00326
797.85	0.00332
798.154	0.00309
798.457	0.00304
798.761	0.003
799.064	0.00281
799.367	0.00264
799.67	0.00262
799.973	0.00277
800.277	0.00243
800.58	0.00247
800.883	0.00247
801.186	0.0026
801.488	0.00278
801.791	0.00287
802.094	0.00264
802.397	0.00263
802.699	0.00249
803.002	0.00243
803.305	0.00272
803.607	0.00288
803.91	0.00273
804.212	0.00263
804.515	0.00293
804.817	0.00301
805.119	0.00281
805.421	0.00275
805.724	0.0026
806.026	0.00268
806.328	0.0025
806.63	0.00256
806.932	0.00251
807.234	0.00262
807.535	0.00263
807.837	0.00238
808.139	0.00229
808.441	0.00225
808.742	0.00228
809.044	0.00202
809.346	0.00211
809.647	0.00194
809.948	0.002
810.25	0.00183
810.551	0.00153
810.853	0.00139
811.154	0.00122
811.455	0.00135
811.756	0.0012
812.057	0.00126
812.358	0.00112
812.659	0.0011
812.96	0.00107
813.261	0.00088
813.562	0.00075
813.863	0.00079
814.163	0.00064
814.464	0.0005
814.765	0.0007
815.065	0.00097
815.366	0.0008
815.666	0.00047
815.967	0.00038
816.267	0.00017
816.567	0.0003
816.868	0.00054
817.168	0.0005
817.468	0.00056
817.768	0.00037
818.068	0.0004
818.368	0.00052
818.668	0.00033
818.968	0.00036
819.268	0.00034
819.568	0.00068
819.867	0.00071
820.167	0.0005
820.467	0.00073
820.766	0.0006
821.066	0.0002
821.365	-0.00033
821.665	0.00002
821.964	0.00015
822.263	0.00024
822.563	0.00049
822.862	0.00079
823.161	0.00104
823.46	0.00093
823.759	0.00115
824.058	0.00119
824.357	0.00114
824.656	0.0011
824.955	0.00115
825.254	0.00087
825.552	0.00077
825.851	0.00043
826.15	0.00052
826.448	0.00042
826.747	0.00018
827.045	0.00023
827.344	0.00042
827.642	0.00047
827.941	0.0004
828.239	0.00046
828.537	-0.00001
828.835	0.00006
829.133	0.00019
829.432	0.00003
829.73	0.00015
830.028	0.0001
830.325	0.00062
830.623	0.00064
830.921	0.00085
831.219	0.00041
831.517	0.00065
831.814	0.00077
832.112	0.00132
832.409	0.00136
832.707	0.00125
833.004	0.00142
833.302	0.00137
833.599	0.00175
833.896	0.00225
834.194	0.00218
834.491	0.00195
834.788	0.00213
835.085	0.00245
835.382	0.0024
835.679	0.00191
835.976	0.00188
836.273	0.00119
836.57	0.00059
836.866	0.00055
837.163	0.00046
837.46	0.00044
837.756	0.00039
838.053	0.00028
838.349	-0.00056
838.646	-0.00054
838.942	-0.00025
839.239	-0.00038
839.535	-0.00054
839.831	-0.00061
840.127	-0.00078
840.423	-0.00071
840.72	-0.00047
841.016	-0.00055
841.312	-0.00109
841.607	-0.00117
841.903	-0.00031
842.199	-0.001
842.495	-0.00046
842.791	-0.00006
843.086	0.00035
843.382	-0.0002
843.677	-0.00044
843.973	-0.00065
844.268	0.00038
844.564	0.00126
844.859	0.00096
845.154	0.0006
845.45	0.00138
845.745	0.00155
846.04	0.00069
846.335	0.00023
846.63	0.00018
846.925	0.00064
847.22	0.00062
847.515	-0.0009
847.81	-0.00218
848.104	-0.00405
848.399	-0.004
848.694	-0.00342
848.988	-0.00466
849.283	-0.00506
849.578	-0.00487
849.872	-0.00433
850.166	-0.00485
850.461	-0.00817
850.755	-0.00884
851.049	-0.00913
851.343	-0.00917
851.638	-0.01119
851.932	-0.01091
852.226	-0.00986
852.52	-0.00989
852.814	-0.01036
853.107	-0.01029
853.401	-0.01025
853.695	-0.0087
853.989	-0.00909
854.282	-0.00598
854.576	-0.00499
854.869	-0.00567
855.163	-0.00271
855.456	-0.00309
855.75	-0.00212
856.043	-0.00109
856.336	0.00025
856.63	0.00349
856.923	0.00336
857.216	0.00349
857.509	0.00407
857.802	0.00551
858.095	0.00556
858.388	0.00554
858.681	0.00647
858.974	0.00707
859.266	0.00649
859.559	0.00622
859.852	0.00843
860.144	0.00918
860.437	0.00855
860.729	0.01023
861.022	0.00843
861.314	0.00596
861.606	0.00668
861.899	0.00844
862.191	0.00872
862.483	0.00913
862.775	0.0084
863.067	0.00846
863.359	0.00923
863.651	0.00977
863.943	0.00863
864.235	0.00866
864.527	0.00868
864.819	0.00631
865.11	0.00397
865.402	0.00376
865.693	0.00679
865.985	0.00584
866.276	0.00483
866.568	0.00346
866.859	0.00177
867.151	0.00258
867.442	0.00504
867.733	0.00526
868.024	0.0054
868.315	0.0051
868.606	0.00218
868.897	0.00293
869.188	0.00214
869.479	0.00127
869.77	-0.00078
870.061	-0.00091
870.351	-0.00061
870.642	-0.0005
870.933	-0.00041
871.223	0.00128
871.514	0.00168
871.804	-0.0032
872.095	-0.0038
872.385	-0.00122
872.675	-0.00046
