Data from 10 min laser_Absorbance_01.txt Node
Date: Fri Jan 27 16:24:57 EST 2023
User: UV-vis
Spectrometer: FLMS04918
Trigger mode: 0
Integration Time (sec): 1.340000E-3
Scans to average: 10
Electric dark correction enabled: true
Nonlinearity correction enabled: false
Boxcar width: 10
XAxis mode: Wavelengths
Number of Pixels in Spectrum: 2048
>>>>>Begin Spectral Data<<<<<
179.23	0.32527
179.611	0.47414
179.992	0.64589
180.373	0.81913
180.754	0.72009
181.134	0.53943
181.515	0.44111
181.896	0.59843
182.276	0.48112
182.657	0.23858
183.038	0.15166
183.418	0.10715
183.799	0.97136
184.179	0.36926
184.56	0.18039
184.94	0.16842
185.32	0.18516
185.701	0.15786
186.081	0.14777
186.461	0.14445
186.842	0.15009
187.222	0.15017
187.602	0.1458
187.982	0.13863
188.362	0.13358
188.742	0.1364
189.122	0.13369
189.502	0.1349
189.882	0.1372
190.262	0.13939
190.642	0.1428
191.022	0.14446
191.402	0.14292
191.781	0.14115
192.161	0.14004
192.541	0.14163
192.92	0.14019
193.3	0.13756
193.68	0.14026
194.059	0.14469
194.439	0.14415
194.818	0.14022
195.198	0.14132
195.577	0.14095
195.957	0.14443
196.336	0.14626
196.715	0.14464
197.094	0.14547
197.474	0.14404
197.853	0.14396
198.232	0.14243
198.611	0.14004
198.99	0.14047
199.369	0.14317
199.748	0.1427
200.127	0.14201
200.506	0.1417
200.885	0.14409
201.264	0.14217
201.643	0.13998
202.022	0.13479
202.401	0.13623
202.779	0.13997
203.158	0.13957
203.537	0.1412
203.915	0.14399
204.294	0.14501
204.673	0.14662
205.051	0.14888
205.43	0.15047
205.808	0.14745
206.187	0.15057
206.565	0.15242
206.943	0.15299
207.322	0.15176
207.7	0.15338
208.078	0.15413
208.456	0.15322
208.835	0.14939
209.213	0.15135
209.591	0.15491
209.969	0.15626
210.347	0.15439
210.725	0.15599
211.103	0.15062
211.481	0.15003
211.859	0.14601
212.237	0.14499
212.614	0.143
212.992	0.14453
213.37	0.14699
213.748	0.14854
214.125	0.14538
214.503	0.14649
214.881	0.14629
215.258	0.14719
215.636	0.14584
216.013	0.14664
216.391	0.14624
216.768	0.14823
217.145	0.15019
217.523	0.14626
217.9	0.1455
218.277	0.14664
218.655	0.14481
219.032	0.14977
219.409	0.15109
219.786	0.14933
220.163	0.14823
220.54	0.1521
220.917	0.15181
221.294	0.14813
221.671	0.1486
222.048	0.15168
222.425	0.15285
222.802	0.15342
223.179	0.15437
223.556	0.15636
223.932	0.15796
224.309	0.1614
224.686	0.15987
225.062	0.1581
225.439	0.15834
225.815	0.16167
226.192	0.16201
226.568	0.16147
226.945	0.16041
227.321	0.15871
227.698	0.16245
228.074	0.16623
228.45	0.16321
228.827	0.16136
229.203	0.16359
229.579	0.16306
229.955	0.16521
230.331	0.16493
230.707	0.16516
231.083	0.16382
231.46	0.16302
231.835	0.16096
232.211	0.15918
232.587	0.16036
232.963	0.16204
233.339	0.16391
233.715	0.16603
234.091	0.16592
234.466	0.16687
234.842	0.16861
235.218	0.16967
235.593	0.16898
235.969	0.16599
236.344	0.16634
236.72	0.1692
237.095	0.16841
237.471	0.16872
237.846	0.16593
238.222	0.1679
238.597	0.16886
238.972	0.17111
239.348	0.17202
239.723	0.17253
240.098	0.17058
240.473	0.1691
240.848	0.16653
241.223	0.16487
241.598	0.16226
241.973	0.1629
242.348	0.16261
242.723	0.16663
243.098	0.16625
243.473	0.16472
243.848	0.1669
244.223	0.16901
244.597	0.16844
244.972	0.17047
245.347	0.17042
245.721	0.17032
246.096	0.16918
246.47	0.16919
246.845	0.17015
247.219	0.16977
247.594	0.17097
247.968	0.17149
248.343	0.17598
248.717	0.17671
249.091	0.18121
249.466	0.18069
249.84	0.17917
250.214	0.17762
250.588	0.17477
250.962	0.17438
251.336	0.17484
251.71	0.17381
252.084	0.17254
252.458	0.17209
252.832	0.17248
253.206	0.17291
253.58	0.17287
253.954	0.17523
254.328	0.17491
254.702	0.17373
255.075	0.17434
255.449	0.17515
255.823	0.17528
256.196	0.17322
256.57	0.17691
256.943	0.17502
257.317	0.17772
257.69	0.18045
258.064	0.18173
258.437	0.18018
258.81	0.1826
259.184	0.1842
259.557	0.18464
259.93	0.18632
260.303	0.18576
260.677	0.18542
261.05	0.18476
261.423	0.18577
261.796	0.18504
262.169	0.18367
262.542	0.18621
262.915	0.1868
263.288	0.18582
263.661	0.18645
264.033	0.19
264.406	0.19279
264.779	0.19204
265.152	0.19221
265.524	0.19149
265.897	0.19213
266.27	0.19281
266.642	0.19204
267.015	0.19487
267.387	0.19602
267.76	0.19877
268.132	0.20112
268.504	0.20289
268.877	0.20549
269.249	0.20764
269.621	0.20723
269.994	0.20834
270.366	0.20592
270.738	0.20624
271.11	0.20803
271.482	0.21
271.854	0.20959
272.226	0.20706
272.598	0.20892
272.97	0.20906
273.342	0.21225
273.714	0.21378
274.086	0.21581
274.458	0.22007
274.829	0.21909
275.201	0.22161
275.573	0.22075
275.944	0.22201
276.316	0.22253
276.688	0.2237
277.059	0.22331
277.431	0.22636
277.802	0.22985
278.173	0.23545
278.545	0.24154
278.916	0.25021
279.287	0.26095
279.659	0.27243
280.03	0.28518
280.401	0.29628
280.772	0.30727
281.143	0.31564
281.515	0.3224
281.886	0.3278
282.257	0.33094
282.628	0.33326
282.998	0.335
283.369	0.33579
283.74	0.3365
284.111	0.3364
284.482	0.33578
284.853	0.33553
285.223	0.33474
285.594	0.33365
285.965	0.33261
286.335	0.33147
286.706	0.33029
287.076	0.32897
287.447	0.32771
287.817	0.326
288.188	0.32451
288.558	0.32297
288.928	0.32101
289.299	0.31895
289.669	0.31681
290.039	0.3146
290.409	0.31242
290.779	0.31013
291.149	0.30777
291.52	0.30536
291.89	0.30327
292.26	0.30115
292.629	0.29876
292.999	0.29669
293.369	0.29462
293.739	0.29264
294.109	0.29067
294.479	0.28872
294.848	0.28684
295.218	0.28482
295.588	0.28303
295.957	0.28114
296.327	0.27915
296.696	0.27736
297.066	0.27536
297.435	0.27331
297.805	0.27126
298.174	0.26908
298.544	0.26694
298.913	0.26475
299.282	0.26253
299.651	0.26023
300.021	0.25812
300.39	0.25617
300.759	0.25412
301.128	0.25239
301.497	0.25067
301.866	0.24913
302.235	0.24762
302.604	0.24624
302.973	0.24483
303.342	0.24344
303.71	0.242
304.079	0.24036
304.448	0.23849
304.817	0.2366
305.185	0.23461
305.554	0.23238
305.923	0.23002
306.291	0.22754
306.66	0.22533
307.028	0.22326
307.397	0.22094
307.765	0.21871
308.133	0.21641
308.502	0.21421
308.87	0.21183
309.238	0.20953
309.606	0.2075
309.975	0.20549
310.343	0.2035
310.711	0.20184
311.079	0.20025
311.447	0.19862
311.815	0.19733
312.183	0.1964
312.551	0.19575
312.919	0.19534
313.286	0.19527
313.654	0.19565
314.022	0.19632
314.39	0.19702
314.757	0.19765
315.125	0.19844
315.492	0.19917
315.86	0.19987
316.228	0.20039
316.595	0.2009
316.962	0.20123
317.33	0.20102
317.697	0.20075
318.065	0.20038
318.432	0.1996
318.799	0.1987
319.166	0.19778
319.534	0.19676
319.901	0.19574
320.268	0.19501
320.635	0.19441
321.002	0.19384
321.369	0.19307
321.736	0.19218
322.103	0.1913
322.47	0.19044
322.836	0.1897
323.203	0.18884
323.57	0.18802
323.937	0.18735
324.303	0.18672
324.67	0.18613
325.037	0.18576
325.403	0.18559
325.77	0.1853
326.136	0.18519
326.503	0.18521
326.869	0.1854
327.235	0.18563
327.602	0.18583
327.968	0.18583
328.334	0.18559
328.7	0.18526
329.067	0.18495
329.433	0.18466
329.799	0.18429
330.165	0.18411
330.531	0.18393
330.897	0.18393
331.263	0.18425
331.629	0.18452
331.995	0.18498
332.36	0.18563
332.726	0.18626
333.092	0.18684
333.458	0.18761
333.823	0.1885
334.189	0.18946
334.554	0.19032
334.92	0.1912
335.286	0.19214
335.651	0.19299
336.016	0.19392
336.382	0.19492
336.747	0.19581
337.113	0.19666
337.478	0.19764
337.843	0.19846
338.208	0.19933
338.573	0.20014
338.939	0.20096
339.304	0.20177
339.669	0.20257
340.034	0.2032
340.399	0.20402
340.764	0.20485
341.129	0.20581
341.493	0.20671
341.858	0.20748
342.223	0.20837
342.588	0.20929
342.952	0.21012
343.317	0.21093
343.682	0.21173
344.046	0.21255
344.411	0.21348
344.775	0.21447
345.14	0.21532
345.504	0.21627
345.869	0.21714
346.233	0.21798
346.597	0.21867
346.962	0.21934
347.326	0.21986
347.69	0.22053
348.054	0.22114
348.418	0.2216
348.782	0.22204
349.146	0.22238
349.51	0.22283
349.874	0.22327
350.238	0.22367
350.602	0.22402
350.966	0.22444
351.33	0.22491
351.693	0.22526
352.057	0.22568
352.421	0.22614
352.784	0.22666
353.148	0.22714
353.512	0.22772
353.875	0.22839
354.239	0.22895
354.602	0.2297
354.966	0.2304
355.329	0.23116
355.692	0.23191
356.056	0.2329
356.419	0.2337
356.782	0.23469
357.145	0.23571
357.508	0.23672
357.871	0.23764
358.234	0.23864
358.597	0.23962
358.96	0.24057
359.323	0.24156
359.686	0.24255
360.049	0.24356
360.412	0.24454
360.775	0.24558
361.137	0.24653
361.5	0.24761
361.863	0.24859
362.225	0.24955
362.588	0.25071
362.951	0.25168
363.313	0.25252
363.675	0.25342
364.038	0.2544
364.4	0.25535
364.763	0.25624
365.125	0.25719
365.487	0.25828
365.849	0.25928
366.212	0.26023
366.574	0.26126
366.936	0.26235
367.298	0.2634
367.66	0.26448
368.022	0.26562
368.384	0.26685
368.746	0.26799
369.108	0.26906
369.469	0.27034
369.831	0.27156
370.193	0.27271
370.555	0.27408
370.916	0.27548
371.278	0.27682
371.64	0.27808
372.001	0.27935
372.363	0.28067
372.724	0.28199
373.086	0.28328
373.447	0.2847
373.808	0.28605
374.17	0.28745
374.531	0.28868
374.892	0.29005
375.253	0.2914
375.615	0.29279
375.976	0.29411
376.337	0.29558
376.698	0.29712
377.059	0.29855
377.42	0.30007
377.781	0.30171
378.141	0.30328
378.502	0.30499
378.863	0.30671
379.224	0.3085
379.585	0.3104
379.945	0.31219
380.306	0.31401
380.666	0.31582
381.027	0.31756
381.388	0.31941
381.748	0.32123
382.108	0.32325
382.469	0.32537
382.829	0.3274
383.19	0.3294
383.55	0.33152
383.91	0.33353
384.27	0.33554
384.63	0.33766
384.991	0.33979
385.351	0.34176
385.711	0.34372
386.071	0.34585
386.431	0.3479
386.791	0.34994
387.15	0.35204
387.51	0.35414
387.87	0.35608
388.23	0.35824
388.589	0.36028
388.949	0.36244
389.309	0.36458
389.668	0.36673
390.028	0.3688
390.387	0.37092
390.747	0.37321
391.106	0.37548
391.466	0.37782
391.825	0.38021
392.184	0.38274
392.544	0.38524
392.903	0.38789
393.262	0.39042
393.621	0.39282
393.98	0.3954
394.339	0.39809
394.698	0.40087
395.057	0.40369
395.416	0.40656
395.775	0.40933
396.134	0.41238
396.493	0.41537
396.852	0.41843
397.211	0.42146
397.569	0.42445
397.928	0.42751
398.287	0.43053
398.645	0.43343
399.004	0.43643
399.362	0.4394
399.721	0.44234
400.079	0.4453
400.438	0.44822
400.796	0.45134
401.154	0.45462
401.512	0.45794
401.871	0.46135
402.229	0.46445
402.587	0.46784
402.945	0.47119
403.303	0.47451
403.661	0.47771
404.019	0.48091
404.377	0.48394
404.735	0.48738
405.093	0.49051
405.451	0.49353
405.808	0.49657
406.166	0.49967
406.524	0.5028
406.882	0.5057
407.239	0.5086
407.597	0.51166
407.954	0.51461
408.312	0.51761
408.669	0.5206
409.027	0.52367
409.384	0.52666
409.741	0.52964
410.099	0.53244
410.456	0.5354
410.813	0.53821
411.17	0.54104
411.527	0.54369
411.884	0.54661
412.242	0.54914
412.599	0.55187
412.956	0.55469
413.312	0.55721
413.669	0.55974
414.026	0.5621
414.383	0.56473
414.74	0.56713
415.096	0.56947
415.453	0.5718
415.81	0.57446
416.166	0.57673
416.523	0.57902
416.879	0.58137
417.236	0.58382
417.592	0.58626
417.949	0.58834
418.305	0.59054
418.661	0.59223
419.018	0.59423
419.374	0.59605
419.73	0.59799
420.086	0.59962
420.442	0.60108
420.798	0.60266
421.154	0.60404
421.51	0.60529
421.866	0.60625
422.222	0.60724
422.578	0.60808
422.934	0.60899
423.29	0.60928
423.646	0.61
424.001	0.61046
424.357	0.61061
424.713	0.61069
425.068	0.6108
425.424	0.61063
425.779	0.61046
426.135	0.6105
426.49	0.61036
426.845	0.60972
427.201	0.60904
427.556	0.60867
427.911	0.6083
428.266	0.60737
428.622	0.60662
428.977	0.60592
429.332	0.60526
429.687	0.60439
430.042	0.60387
430.397	0.60312
430.752	0.60235
431.107	0.60161
431.461	0.60089
431.816	0.60027
432.171	0.59981
432.526	0.59909
432.88	0.59856
433.235	0.59726
433.59	0.59616
433.944	0.59492
434.299	0.59364
434.653	0.59235
435.008	0.59085
435.362	0.58923
435.716	0.58808
436.071	0.58646
436.425	0.58482
436.779	0.58345
437.133	0.58218
437.487	0.58007
437.841	0.57832
438.195	0.57645
438.549	0.57452
438.903	0.57221
439.257	0.57014
439.611	0.56744
439.965	0.56475
440.319	0.56212
440.673	0.55947
441.026	0.55641
441.38	0.55355
441.734	0.55097
442.087	0.54833
442.441	0.54576
442.794	0.54281
443.148	0.54
443.501	0.53723
443.855	0.53492
444.208	0.53192
444.561	0.52887
444.915	0.52609
445.268	0.52288
445.621	0.51987
445.974	0.51699
446.327	0.51426
446.68	0.51158
447.033	0.50898
447.386	0.50626
447.739	0.50347
448.092	0.50126
448.445	0.49871
448.798	0.49604
449.15	0.49306
449.503	0.4904
449.856	0.48762
450.209	0.48487
450.561	0.4819
450.914	0.47943
451.266	0.47652
451.619	0.47397
451.971	0.47107
452.323	0.46845
452.676	0.46576
453.028	0.46302
453.38	0.45998
453.733	0.45739
454.085	0.45429
454.437	0.45125
454.789	0.44827
455.141	0.4453
455.493	0.44204
455.845	0.439
456.197	0.43579
456.549	0.43304
456.901	0.42994
457.253	0.4268
457.604	0.42406
457.956	0.42117
458.308	0.41841
458.659	0.41535
459.011	0.41211
459.362	0.40935
459.714	0.40605
460.065	0.40285
460.417	0.40027
460.768	0.39745
461.12	0.39412
461.471	0.39125
461.822	0.38857
462.173	0.3857
462.525	0.38315
462.876	0.38015
463.227	0.37746
463.578	0.37489
463.929	0.37203
464.28	0.36928
464.631	0.36672
464.982	0.36392
465.332	0.36155
465.683	0.35854
466.034	0.3557
466.385	0.3529
466.735	0.35023
467.086	0.34795
467.437	0.3455
467.787	0.34278
468.138	0.34017
468.488	0.33783
468.839	0.33543
469.189	0.33273
469.539	0.33047
469.89	0.32771
470.24	0.32552
470.59	0.32331
470.94	0.32099
471.29	0.31874
471.64	0.31657
471.99	0.31423
472.34	0.31176
472.69	0.30924
473.04	0.30703
473.39	0.30495
473.74	0.30325
474.09	0.30125
474.439	0.29907
474.789	0.29704
475.139	0.29477
475.488	0.29272
475.838	0.29051
476.188	0.2885
476.537	0.28654
476.886	0.28422
477.236	0.28228
477.585	0.27993
477.935	0.27786
478.284	0.27582
478.633	0.27366
478.982	0.27158
479.331	0.26959
479.68	0.26784
480.03	0.26593
480.379	0.26418
480.728	0.26268
481.076	0.2606
481.425	0.2585
481.774	0.25656
482.123	0.25472
482.472	0.25301
482.821	0.2512
483.169	0.24958
483.518	0.24786
483.866	0.24609
484.215	0.24449
484.563	0.24283
484.912	0.2414
485.26	0.23963
485.609	0.23816
485.957	0.23638
486.305	0.23486
486.654	0.23321
487.002	0.23168
487.35	0.23017
487.698	0.22843
488.046	0.22661
488.394	0.22498
488.742	0.22335
489.09	0.22193
489.438	0.22054
489.786	0.21899
490.134	0.21739
490.482	0.2159
490.829	0.2141
491.177	0.21253
491.525	0.21106
491.872	0.20953
492.22	0.2081
492.567	0.20666
492.915	0.20495
493.262	0.20376
493.61	0.2023
493.957	0.20077
494.304	0.19909
494.652	0.19763
494.999	0.19625
495.346	0.19473
495.693	0.19341
496.04	0.19216
496.387	0.19069
496.734	0.18925
497.081	0.18803
497.428	0.18682
497.775	0.18543
498.122	0.18442
498.469	0.18321
498.816	0.18197
499.162	0.18074
499.509	0.17951
499.856	0.17845
500.202	0.17725
500.549	0.17609
500.895	0.175
501.242	0.17389
501.588	0.17282
501.935	0.17156
502.281	0.17032
502.627	0.16928
502.973	0.16813
503.32	0.16701
503.666	0.16601
504.012	0.16506
504.358	0.16391
504.704	0.16278
505.05	0.16174
505.396	0.16065
505.742	0.15962
506.088	0.1586
506.433	0.15764
506.779	0.15659
507.125	0.15547
507.471	0.15453
507.816	0.1533
508.162	0.15228
508.507	0.15127
508.853	0.15034
509.198	0.1494
509.544	0.14871
509.889	0.1477
510.234	0.14692
510.58	0.14601
510.925	0.14498
511.27	0.14403
511.615	0.14312
511.96	0.14219
512.306	0.14126
512.651	0.14031
512.996	0.13945
513.341	0.13847
513.685	0.13746
514.03	0.13648
514.375	0.13573
514.72	0.13487
515.065	0.13429
515.409	0.13334
515.754	0.13259
516.099	0.13178
516.443	0.13122
516.788	0.13023
517.132	0.12955
517.476	0.12877
517.821	0.12804
518.165	0.12727
518.51	0.12638
518.854	0.12566
519.198	0.12503
519.542	0.12442
519.886	0.1237
520.23	0.12319
520.574	0.12264
520.918	0.12211
521.262	0.12153
521.606	0.12091
521.95	0.12016
522.294	0.11933
522.638	0.11871
522.981	0.11806
523.325	0.11736
523.669	0.11661
524.012	0.11613
524.356	0.11542
524.699	0.11473
525.043	0.11428
525.386	0.11373
525.73	0.11331
526.073	0.1127
526.416	0.11189
526.76	0.11111
527.103	0.1106
527.446	0.10986
527.789	0.10927
528.132	0.10867
528.475	0.10809
528.818	0.10755
529.161	0.10704
529.504	0.10656
529.847	0.10595
530.19	0.10548
530.532	0.10505
530.875	0.10435
531.218	0.10367
531.56	0.10315
531.903	0.10256
532.246	0.10186
532.588	0.10148
532.93	0.10078
533.273	0.10019
533.615	0.09989
533.958	0.09943
534.3	0.09901
534.642	0.09845
534.984	0.09794
535.326	0.09725
535.669	0.09676
536.011	0.09625
536.353	0.0958
536.695	0.09536
537.037	0.09483
537.378	0.09416
537.72	0.09366
538.062	0.09326
538.404	0.09289
538.746	0.09232
539.087	0.09199
539.429	0.09153
539.77	0.09086
540.112	0.09029
540.454	0.08977
540.795	0.08926
541.136	0.08881
541.478	0.08825
541.819	0.08786
542.16	0.08748
542.502	0.08727
542.843	0.0868
543.184	0.08632
543.525	0.08581
543.866	0.08536
544.207	0.08492
544.548	0.08464
544.889	0.08414
545.23	0.08381
545.571	0.08334
545.911	0.08306
546.252	0.08268
546.593	0.08245
546.934	0.08219
547.274	0.08188
547.615	0.08159
547.955	0.08114
548.296	0.08087
548.636	0.08045
548.977	0.07998
549.317	0.0794
549.657	0.07898
549.997	0.0787
550.338	0.0783
550.678	0.07802
551.018	0.07757
551.358	0.07735
551.698	0.07687
552.038	0.07655
552.378	0.07629
552.718	0.07582
553.058	0.07546
553.398	0.07503
553.737	0.07464
554.077	0.07414
554.417	0.07383
554.756	0.07357
555.096	0.07337
555.435	0.07294
555.775	0.07268
556.114	0.07246
556.454	0.07224
556.793	0.07193
557.133	0.07144
557.472	0.07122
557.811	0.07088
558.15	0.07063
558.489	0.07003
558.829	0.06962
559.168	0.06937
559.507	0.06894
559.846	0.06866
560.184	0.06833
560.523	0.06786
560.862	0.06744
561.201	0.06721
561.54	0.06694
561.878	0.06668
562.217	0.06636
562.556	0.066
562.894	0.0655
563.233	0.06508
563.571	0.06465
563.91	0.06432
564.248	0.06401
564.586	0.06349
564.925	0.06319
565.263	0.06279
565.601	0.06265
565.939	0.06254
566.277	0.06209
566.616	0.06173
566.954	0.06155
567.292	0.0613
567.63	0.06119
567.967	0.06097
568.305	0.06072
568.643	0.06049
568.981	0.06003
569.319	0.0597
569.656	0.05952
569.994	0.05936
570.331	0.05922
570.669	0.05914
571.006	0.05884
571.344	0.05858
571.681	0.05831
572.019	0.05806
572.356	0.05778
572.693	0.05766
573.03	0.05743
573.368	0.05729
573.705	0.05724
574.042	0.05691
574.379	0.05673
574.716	0.05635
575.053	0.0561
575.39	0.05582
575.727	0.05549
576.063	0.0553
576.4	0.05504
576.737	0.05482
577.074	0.05459
577.41	0.05434
577.747	0.05401
578.083	0.05384
578.42	0.05365
578.756	0.05345
579.093	0.05323
579.429	0.05325
579.766	0.05293
580.102	0.05269
580.438	0.05242
580.774	0.05206
581.11	0.05191
581.446	0.05164
581.782	0.05155
582.119	0.05129
582.454	0.05121
582.79	0.05098
583.126	0.05086
583.462	0.05067
583.798	0.05042
584.134	0.05033
584.469	0.05018
584.805	0.05006
585.141	0.04987
585.476	0.04977
585.812	0.04964
586.147	0.04946
586.482	0.0493
586.818	0.04918
587.153	0.04892
587.488	0.04883
587.824	0.04865
588.159	0.04849
588.494	0.04844
588.829	0.04823
589.164	0.0481
589.499	0.04781
589.834	0.04765
590.169	0.04738
590.504	0.04733
590.839	0.04721
591.174	0.04692
591.508	0.04663
591.843	0.04642
592.178	0.04617
592.512	0.04602
592.847	0.04588
593.181	0.04577
593.516	0.04534
593.85	0.04516
594.185	0.04505
594.519	0.04475
594.853	0.04454
595.187	0.04441
595.522	0.04416
595.856	0.04404
596.19	0.04389
596.524	0.04374
596.858	0.04362
597.192	0.0435
597.526	0.04329
597.86	0.04311
598.194	0.04303
598.527	0.04291
598.861	0.04267
599.195	0.04251
599.528	0.04226
599.862	0.042
600.196	0.04182
600.529	0.04178
600.863	0.04166
601.196	0.04159
601.529	0.04155
601.863	0.04147
602.196	0.04126
602.529	0.04108
602.862	0.04092
603.196	0.04082
603.529	0.04068
603.862	0.04058
604.195	0.04041
604.528	0.0403
604.861	0.04018
605.193	0.04006
605.526	0.03983
605.859	0.03982
606.192	0.03976
606.524	0.03973
606.857	0.0396
607.19	0.03955
607.522	0.03954
607.855	0.03944
608.187	0.03926
608.52	0.03919
608.852	0.03919
609.184	0.03914
609.517	0.03902
609.849	0.0388
610.181	0.0386
610.513	0.03842
610.845	0.03822
611.177	0.03824
611.509	0.03811
611.841	0.03793
612.173	0.03783
612.505	0.03787
612.837	0.03777
613.169	0.03767
613.5	0.03743
613.832	0.0374
614.164	0.03733
614.495	0.03705
614.827	0.03693
615.158	0.0368
615.49	0.03672
615.821	0.03641
616.152	0.03619
616.484	0.03603
616.815	0.03603
617.146	0.03602
617.477	0.0359
617.808	0.0359
618.14	0.03578
618.471	0.03569
618.802	0.03557
619.133	0.03538
619.463	0.03518
619.794	0.03499
620.125	0.03487
620.456	0.03477
620.787	0.03462
621.117	0.03448
621.448	0.03451
621.778	0.03446
622.109	0.03441
622.439	0.03421
622.77	0.0343
623.1	0.03428
623.43	0.03414
623.761	0.03407
624.091	0.03367
624.421	0.03376
624.751	0.03359
625.081	0.03352
625.412	0.03332
625.742	0.03318
626.072	0.03311
626.401	0.03305
626.731	0.03291
627.061	0.03276
627.391	0.03264
627.721	0.03263
628.05	0.03259
628.38	0.03241
628.71	0.03218
629.039	0.03206
629.369	0.032
629.698	0.03167
630.028	0.03151
630.357	0.03159
630.686	0.03151
631.015	0.03171
631.345	0.03136
631.674	0.03131
632.003	0.03115
632.332	0.03108
632.661	0.03106
632.99	0.03098
633.319	0.03102
633.648	0.03106
633.977	0.03103
634.306	0.03101
634.634	0.03093
634.963	0.03063
635.292	0.0305
635.62	0.03044
635.949	0.03035
636.277	0.03022
636.606	0.03032
636.934	0.03029
637.263	0.03013
637.591	0.02992
637.919	0.02962
638.248	0.02974
638.576	0.02961
638.904	0.02956
639.232	0.02954
639.56	0.02946
639.888	0.02935
640.216	0.02907
640.544	0.02894
640.872	0.02876
641.2	0.02873
641.528	0.02864
641.855	0.02874
642.183	0.02864
642.511	0.02863
642.838	0.02857
643.166	0.02859
643.493	0.02843
643.821	0.02833
644.148	0.02829
644.475	0.02831
644.803	0.02841
645.13	0.02815
645.457	0.0282
645.784	0.02804
646.112	0.02793
646.439	0.02796
646.766	0.02773
647.093	0.02768
647.42	0.02751
647.746	0.0275
648.073	0.0274
648.4	0.0274
648.727	0.02719
649.053	0.02721
649.38	0.02708
649.707	0.02696
650.033	0.0268
650.36	0.02693
650.686	0.02684
651.013	0.02662
651.339	0.02654
651.665	0.02638
651.992	0.02634
652.318	0.02616
652.644	0.02622
652.97	0.02616
653.296	0.02605
653.622	0.0262
653.948	0.02621
654.274	0.02622
654.6	0.02621
654.926	0.02608
655.252	0.02588
655.578	0.02587
655.903	0.02568
656.229	0.02564
656.555	0.02554
656.88	0.02535
657.206	0.02508
657.531	0.02503
657.857	0.02517
658.182	0.02516
658.507	0.02517
658.833	0.02527
659.158	0.02521
659.483	0.02505
659.808	0.02508
660.133	0.02511
660.458	0.02493
660.783	0.02495
661.108	0.02487
661.433	0.02483
661.758	0.02479
662.083	0.02467
662.408	0.02461
662.732	0.02476
663.057	0.02477
663.382	0.02477
663.706	0.02481
664.031	0.02477
664.355	0.02468
664.68	0.02455
665.004	0.02438
665.328	0.02434
665.653	0.02419
665.977	0.02414
666.301	0.02414
666.625	0.02406
666.949	0.02379
667.273	0.02381
667.597	0.02363
667.921	0.02358
668.245	0.02348
668.569	0.0236
668.893	0.02362
669.217	0.02351
669.54	0.02336
669.864	0.02336
670.188	0.02316
670.511	0.02308
670.835	0.0229
671.158	0.02295
671.482	0.02277
671.805	0.02278
672.128	0.0227
672.452	0.02278
672.775	0.02275
673.098	0.02266
673.421	0.02244
673.744	0.02246
674.068	0.02234
674.391	0.02231
674.714	0.02236
675.036	0.02239
675.359	0.02218
675.682	0.02224
676.005	0.02235
676.328	0.02233
676.65	0.02232
676.973	0.02246
677.295	0.02252
677.618	0.02257
677.94	0.02247
678.263	0.0225
678.585	0.02241
678.908	0.0223
679.23	0.02226
679.552	0.02216
679.874	0.02208
680.196	0.02227
680.519	0.02226
680.841	0.02242
681.163	0.02237
681.485	0.02236
681.807	0.02228
682.128	0.02226
682.45	0.02209
682.772	0.02188
683.094	0.02172
683.415	0.02154
683.737	0.02152
684.059	0.02148
684.38	0.0216
684.702	0.02156
685.023	0.02158
685.344	0.02145
685.666	0.02159
685.987	0.02152
686.308	0.02143
686.629	0.02139
686.95	0.02112
687.272	0.02095
687.593	0.02076
687.914	0.02081
688.235	0.02075
688.555	0.02074
688.876	0.02063
689.197	0.02054
689.518	0.02047
689.839	0.02054
690.159	0.02045
690.48	0.02034
690.8	0.02014
691.121	0.01995
691.441	0.01998
691.762	0.02001
692.082	0.02014
692.402	0.02
692.723	0.01984
693.043	0.02
693.363	0.02
693.683	0.01996
694.003	0.01995
694.323	0.01993
694.643	0.01981
694.963	0.01974
695.283	0.01963
695.603	0.0196
695.923	0.01966
696.243	0.01977
696.562	0.01967
696.882	0.01963
697.202	0.01957
697.521	0.01964
697.841	0.0196
698.16	0.01949
698.479	0.01938
698.799	0.01916
699.118	0.01909
699.437	0.01913
699.757	0.019
700.076	0.01896
700.395	0.01905
700.714	0.01906
701.033	0.019
701.352	0.01898
701.671	0.01883
701.99	0.01875
702.308	0.01873
702.627	0.01867
702.946	0.01861
703.265	0.01869
703.583	0.0187
703.902	0.01876
704.22	0.0187
704.539	0.01874
704.857	0.01871
705.176	0.01881
705.494	0.01899
705.812	0.01898
706.131	0.01887
706.449	0.01876
706.767	0.01877
707.085	0.01856
707.403	0.01861
707.721	0.01844
708.039	0.01843
708.357	0.01852
708.675	0.01854
708.993	0.01857
709.31	0.01845
709.628	0.0183
709.946	0.01795
710.263	0.0178
710.581	0.01767
710.898	0.01772
711.216	0.01777
711.533	0.01779
711.851	0.01756
712.168	0.01736
712.485	0.01734
712.802	0.01731
713.12	0.01721
713.437	0.01709
713.754	0.01724
714.071	0.01717
714.388	0.01724
714.705	0.01719
715.022	0.0172
715.338	0.01694
715.655	0.01682
715.972	0.0168
716.289	0.01684
716.605	0.01688
716.922	0.01712
717.238	0.01715
717.555	0.01697
717.871	0.01678
718.188	0.01659
718.504	0.01668
718.82	0.0167
719.136	0.01647
719.453	0.01647
719.769	0.01644
720.085	0.01642
720.401	0.01638
720.717	0.01626
721.033	0.01641
721.349	0.01652
721.665	0.01618
721.98	0.01631
722.296	0.01635
722.612	0.01643
722.927	0.01645
723.243	0.01653
723.559	0.01647
723.874	0.01645
724.19	0.01647
724.505	0.01635
724.82	0.01655
725.136	0.0164
725.451	0.01627
725.766	0.01645
726.081	0.0164
726.396	0.01644
726.711	0.01652
727.026	0.01622
727.341	0.01634
727.656	0.01611
727.971	0.01594
728.286	0.01612
728.601	0.01604
728.916	0.01609
729.23	0.01614
729.545	0.01619
729.859	0.01646
730.174	0.01634
730.488	0.01613
730.803	0.0162
731.117	0.01621
731.431	0.01609
731.746	0.016
732.06	0.01601
732.374	0.01606
732.688	0.01615
733.002	0.01603
733.316	0.01582
733.63	0.016
733.944	0.01584
734.258	0.01606
734.572	0.01603
734.886	0.01594
735.199	0.0159
735.513	0.01569
735.827	0.01547
736.14	0.0154
736.454	0.0149
736.767	0.01491
737.081	0.01499
737.394	0.01484
737.708	0.01481
738.021	0.01472
738.334	0.01472
738.647	0.01471
738.96	0.01444
739.273	0.01439
739.587	0.01449
739.9	0.01465
740.212	0.01484
740.525	0.01484
740.838	0.01475
741.151	0.01461
741.464	0.01471
741.776	0.0149
742.089	0.015
742.402	0.01511
742.714	0.01483
743.027	0.01497
743.339	0.01487
743.651	0.01488
743.964	0.01488
744.276	0.015
744.588	0.01492
744.901	0.01476
745.213	0.01481
745.525	0.01497
745.837	0.01491
746.149	0.01482
746.461	0.01469
746.773	0.01438
747.085	0.01433
747.396	0.01401
747.708	0.01401
748.02	0.01382
748.331	0.01379
748.643	0.01367
748.955	0.01373
749.266	0.01397
749.577	0.01408
749.889	0.01395
750.2	0.01399
750.512	0.01404
750.823	0.01374
751.134	0.01358
751.445	0.01401
751.756	0.01411
752.067	0.014
752.378	0.01379
752.689	0.01357
753	0.01349
753.311	0.01344
753.622	0.01355
753.932	0.0136
754.243	0.01356
754.554	0.01356
754.864	0.01344
755.175	0.01367
755.485	0.0134
755.796	0.01327
756.106	0.01307
756.417	0.0131
756.727	0.01293
757.037	0.01298
757.347	0.01326
757.658	0.01331
757.968	0.01296
758.278	0.01287
758.588	0.01285
758.898	0.01321
759.208	0.01359
759.517	0.01368
759.827	0.01373
760.137	0.01354
760.447	0.01345
760.756	0.01349
761.066	0.01338
761.375	0.01324
761.685	0.01303
761.994	0.01312
762.304	0.01328
762.613	0.01349
762.922	0.01355
763.232	0.01378
763.541	0.01352
763.85	0.01339
764.159	0.0135
764.468	0.01369
764.777	0.01334
765.086	0.01328
765.395	0.01279
765.704	0.01274
766.013	0.01266
766.321	0.01261
766.63	0.01272
766.939	0.01288
767.247	0.01276
767.556	0.01281
767.864	0.01296
768.173	0.01281
768.481	0.01283
768.789	0.01265
769.098	0.01236
769.406	0.01217
769.714	0.01176
770.022	0.01188
770.33	0.01184
770.638	0.01184
770.946	0.01171
771.254	0.0121
771.562	0.01216
771.87	0.01232
772.178	0.01197
772.486	0.0118
772.793	0.01176
773.101	0.01181
773.408	0.01209
773.716	0.01198
774.023	0.01197
774.331	0.01182
774.638	0.01227
774.946	0.01217
775.253	0.01179
775.56	0.01179
775.867	0.01172
776.174	0.01177
776.481	0.01156
776.788	0.01137
777.095	0.01127
777.402	0.01126
777.709	0.01098
778.016	0.01088
778.323	0.01092
778.63	0.0109
778.936	0.01091
779.243	0.01087
779.549	0.01039
779.856	0.00986
780.162	0.01031
780.469	0.01051
780.775	0.01045
781.082	0.0101
781.388	0.01008
781.694	0.01035
782	0.01037
782.306	0.01048
782.612	0.01034
782.918	0.0105
783.224	0.01051
783.53	0.01051
783.836	0.01049
784.142	0.01015
784.448	0.00998
784.753	0.01009
785.059	0.01051
785.365	0.01028
785.67	0.01014
785.976	0.01026
786.281	0.01051
786.586	0.0103
786.892	0.01024
787.197	0.01027
787.502	0.01018
787.808	0.0102
788.113	0.01032
788.418	0.01044
788.723	0.01034
789.028	0.01059
789.333	0.01056
789.638	0.01094
789.942	0.01105
790.247	0.01042
790.552	0.01102
790.857	0.01114
791.161	0.01077
791.466	0.01063
791.77	0.0107
792.075	0.01106
792.379	0.01117
792.684	0.01112
792.988	0.01072
793.292	0.01046
793.597	0.01046
793.901	0.01043
794.205	0.01001
794.509	0.00962
794.813	0.00918
795.117	0.00943
795.421	0.0095
795.725	0.00934
796.029	0.00889
796.332	0.00898
796.636	0.00959
796.94	0.00952
797.243	0.00936
797.547	0.00944
797.85	0.00923
798.154	0.00949
798.457	0.00928
798.761	0.0094
799.064	0.00935
799.367	0.00986
799.67	0.01002
799.973	0.00983
800.277	0.01013
800.58	0.01005
800.883	0.00997
801.186	0.01004
801.488	0.00968
801.791	0.00947
802.094	0.00952
802.397	0.01
802.699	0.00983
803.002	0.00966
803.305	0.00936
803.607	0.0095
803.91	0.00982
804.212	0.00959
804.515	0.00956
804.817	0.01016
805.119	0.01029
805.421	0.01018
805.724	0.0098
806.026	0.0097
806.328	0.01006
806.63	0.0096
806.932	0.00991
807.234	0.01003
807.535	0.01018
807.837	0.01012
808.139	0.00983
808.441	0.00992
808.742	0.00991
809.044	0.00987
809.346	0.01025
809.647	0.0104
809.948	0.0106
810.25	0.01037
810.551	0.01036
810.853	0.01018
811.154	0.00962
811.455	0.00919
811.756	0.00928
812.057	0.00894
812.358	0.00902
812.659	0.00901
812.96	0.00875
813.261	0.00898
813.562	0.00862
813.863	0.00864
814.163	0.009
814.464	0.00904
814.765	0.00942
815.065	0.0091
815.366	0.0092
815.666	0.00908
815.967	0.00869
816.267	0.00821
816.567	0.00826
816.868	0.00888
817.168	0.00937
817.468	0.0096
817.768	0.01014
818.068	0.01018
818.368	0.01094
818.668	0.01068
818.968	0.01082
819.268	0.01135
819.568	0.01093
819.867	0.01192
820.167	0.01225
820.467	0.01241
820.766	0.01215
821.066	0.01152
821.365	0.0117
821.665	0.01134
821.964	0.01101
822.263	0.01106
822.563	0.01137
822.862	0.01129
823.161	0.01071
823.46	0.01059
823.759	0.01034
824.058	0.00978
824.357	0.00961
824.656	0.00935
824.955	0.00966
825.254	0.00942
825.552	0.00911
825.851	0.00947
826.15	0.00924
826.448	0.00898
826.747	0.00872
827.045	0.00954
827.344	0.00978
827.642	0.00913
827.941	0.00978
828.239	0.00927
828.537	0.00936
828.835	0.00917
829.133	0.00931
829.432	0.01026
829.73	0.00979
830.028	0.00914
830.325	0.00933
830.623	0.00908
830.921	0.00896
831.219	0.0087
831.517	0.00845
831.814	0.00807
832.112	0.00794
832.409	0.00818
832.707	0.00857
833.004	0.00921
833.302	0.00963
833.599	0.00858
833.896	0.0091
834.194	0.00844
834.491	0.00898
834.788	0.0088
835.085	0.00996
835.382	0.0096
835.679	0.00927
835.976	0.00955
836.273	0.01005
836.57	0.00933
836.866	0.00938
837.163	0.01012
837.46	0.00988
837.756	0.01048
838.053	0.01067
838.349	0.01098
838.646	0.01005
838.942	0.00883
839.239	0.00766
839.535	0.00706
839.831	0.00811
840.127	0.00832
840.423	0.00884
840.72	0.00929
841.016	0.01041
841.312	0.00971
841.607	0.01102
841.903	0.01041
842.199	0.00936
842.495	0.01129
842.791	0.01277
843.086	0.01342
843.382	0.01155
843.677	0.01176
843.973	0.01166
844.268	0.01349
844.564	0.01346
844.859	0.01535
845.154	0.01732
845.45	0.01763
845.745	0.01715
846.04	0.01757
846.335	0.01906
846.63	0.01857
846.925	0.01798
847.22	0.01817
847.515	0.01681
847.81	0.01743
848.104	0.01667
848.399	0.01786
848.694	0.01549
848.988	0.01605
849.283	0.01785
849.578	0.01909
849.872	0.01887
850.166	0.01657
850.461	0.01796
850.755	0.01859
851.049	0.0161
851.343	0.01729
851.638	0.01865
851.932	0.01808
852.226	0.02109
852.52	0.02237
852.814	0.02344
853.107	0.02548
853.401	0.02468
853.695	0.0284
853.989	0.0239
854.282	0.0268
854.576	0.02861
854.869	0.02901
855.163	0.02757
855.456	0.02554
855.75	0.02917
856.043	0.02923
856.336	0.03139
856.63	0.02724
856.923	0.02676
857.216	0.02821
857.509	0.02687
857.802	0.02801
858.095	0.03488
858.388	0.03289
858.681	0.02749
858.974	0.02962
859.266	0.02629
859.559	0.02628
859.852	0.02438
860.144	0.02362
860.437	0.02432
860.729	0.0232
861.022	0.02248
861.314	0.02529
861.606	0.02637
861.899	0.02872
862.191	0.03478
862.483	0.03241
862.775	0.0359
863.067	0.03074
863.359	0.03119
863.651	0.03146
863.943	0.0294
864.235	0.02461
864.527	0.02637
864.819	0.02605
865.11	0.02073
865.402	0.02542
865.693	0.0295
865.985	0.02542
866.276	0.03307
866.568	0.02953
866.859	0.03351
867.151	0.03251
867.442	0.02977
867.733	0.02769
868.024	0.02673
868.315	0.02465
868.606	0.02982
868.897	0.03156
869.188	0.03362
869.479	0.03061
869.77	0.02681
870.061	0.02567
870.351	0.02632
870.642	0.02482
870.933	0.02622
871.223	0.03048
871.514	0.02884
871.804	0.02326
872.095	0.03043
872.385	0.02594
872.675	0.03006
